Header Size:	 79	 
Pulse Version:	 80	 
Running Pulse Version:	PULSE LabShop Fast Track Version 18.1.1.9 - 2014-01-16	 
Decimal Symbol:	.	 
Date Format:	M/d/yyyy	 
Time Format:	HH:mm:ss:mmm	 
Data Type:	Real	 
Slice:	False	 
Z-Axis type:	Linear	 
Z-Axis size:	1	 
Z-Axis unit:	 	 
Z-Axis first value:	 0.0000000000e+000	 
Z-Axis delta:	 1.0000000000e+000	 
X-Axis type:	Linear	 
X-Axis size:	1601	 
X-Axis unit:	Hz	 
X-Axis first value:	 2.0000000000e+001	 
X-Axis delta:	 1.0000000000e+000	 
	 	 
AmplitudeUnit:	 	 
Analyzer:	FFT_Spectrum_Averaging	 
AnalyzerName:	FFT Analyzer	 
	 	 
	 	 
Bipolar:	False	 
CenterFrequency:	 8.2000000000e+002	 
	 	 
	 	 
	 	 
	 	 
dBReference:	 1.0000000000e+000	 
	 	 
	 	 
	 	 
Domain:	1	 
Function:	Coherence	 
	 	 
InputRange:	-1.0000000000e-001	 
	 	 
	 	 
MultiBufferName:	Input	 
NBW:	 1.5000000000e+000	 
	 	 
OverlapFailed:	False	 
Overrun:	False	 
Power:	True	 
PowerUnit:	 	 
Ratio:	True	 
RecordLength:	 1.0000000000e+000	 
ReducedSize:	True	 
Ref_Signal:	p	 
	 	 
	 	 
RefSignalUnit:	Pa	 
	 	 
	 	 
Signal:	v	 
	 	 
SignalUnit:	m/s	 
	 	 
	 	 
	 	 
Title:	Coherence(v,p) - Input	 
Title1:	Working : Input : Input : FFT Analyzer	 
	 	 
	 	 
	 	 
ZoomOn:	True	 
	 	 
TemplateName:	Working	 
MeasurementName:	Input	 
MeasurementSlice:	False	 
	 	 
	 	 
	 	 
EnvelopeOn:	False	 
	 	 
	 	 
	 	 
Z-index:	 	1
Date:	 	5/24/2022
Time:	 	11:50:40:249
Relative time:	 	 0.00000e+000
Z-axis:	 	 0.0000000000e+000
1	 2.0000000000e+001	 9.99196e-001
2	 2.1000000000e+001	 9.99184e-001
3	 2.2000000000e+001	 9.99306e-001
4	 2.3000000000e+001	 9.98815e-001
5	 2.4000000000e+001	 9.99352e-001
6	 2.5000000000e+001	 9.98986e-001
7	 2.6000000000e+001	 9.99366e-001
8	 2.7000000000e+001	 9.99105e-001
9	 2.8000000000e+001	 9.99472e-001
10	 2.9000000000e+001	 9.99129e-001
11	 3.0000000000e+001	 9.99434e-001
12	 3.1000000000e+001	 9.99230e-001
13	 3.2000000000e+001	 9.99322e-001
14	 3.3000000000e+001	 9.99458e-001
15	 3.4000000000e+001	 9.99186e-001
16	 3.5000000000e+001	 9.99479e-001
17	 3.6000000000e+001	 9.99341e-001
18	 3.7000000000e+001	 9.99224e-001
19	 3.8000000000e+001	 9.99483e-001
20	 3.9000000000e+001	 9.99293e-001
21	 4.0000000000e+001	 9.99235e-001
22	 4.1000000000e+001	 9.99476e-001
23	 4.2000000000e+001	 9.99285e-001
24	 4.3000000000e+001	 9.99097e-001
25	 4.4000000000e+001	 9.99368e-001
26	 4.5000000000e+001	 9.99304e-001
27	 4.6000000000e+001	 9.99003e-001
28	 4.7000000000e+001	 9.99147e-001
29	 4.8000000000e+001	 9.99271e-001
30	 4.9000000000e+001	 9.99015e-001
31	 5.0000000000e+001	 9.98812e-001
32	 5.1000000000e+001	 9.98990e-001
33	 5.2000000000e+001	 9.99012e-001
34	 5.3000000000e+001	 9.98658e-001
35	 5.4000000000e+001	 9.98382e-001
36	 5.5000000000e+001	 9.98546e-001
37	 5.6000000000e+001	 9.98629e-001
38	 5.7000000000e+001	 9.98142e-001
39	 5.8000000000e+001	 9.97489e-001
40	 5.9000000000e+001	 9.97439e-001
41	 6.0000000000e+001	 9.97613e-001
42	 6.1000000000e+001	 9.96958e-001
43	 6.2000000000e+001	 9.95791e-001
44	 6.3000000000e+001	 9.94525e-001
45	 6.4000000000e+001	 9.94205e-001
46	 6.5000000000e+001	 9.93618e-001
47	 6.6000000000e+001	 9.90348e-001
48	 6.7000000000e+001	 9.85913e-001
49	 6.8000000000e+001	 9.81720e-001
50	 6.9000000000e+001	 9.78414e-001
51	 7.0000000000e+001	 9.75062e-001
52	 7.1000000000e+001	 9.69120e-001
53	 7.2000000000e+001	 9.68904e-001
54	 7.3000000000e+001	 9.76230e-001
55	 7.4000000000e+001	 9.82474e-001
56	 7.5000000000e+001	 9.88405e-001
57	 7.6000000000e+001	 9.91406e-001
58	 7.7000000000e+001	 9.92460e-001
59	 7.8000000000e+001	 9.93818e-001
60	 7.9000000000e+001	 9.95181e-001
61	 8.0000000000e+001	 9.96071e-001
62	 8.1000000000e+001	 9.97066e-001
63	 8.2000000000e+001	 9.97555e-001
64	 8.3000000000e+001	 9.97650e-001
65	 8.4000000000e+001	 9.97817e-001
66	 8.5000000000e+001	 9.98128e-001
67	 8.6000000000e+001	 9.98331e-001
68	 8.7000000000e+001	 9.98588e-001
69	 8.8000000000e+001	 9.98801e-001
70	 8.9000000000e+001	 9.98870e-001
71	 9.0000000000e+001	 9.98869e-001
72	 9.1000000000e+001	 9.98931e-001
73	 9.2000000000e+001	 9.99030e-001
74	 9.3000000000e+001	 9.99072e-001
75	 9.4000000000e+001	 9.99174e-001
76	 9.5000000000e+001	 9.99261e-001
77	 9.6000000000e+001	 9.99291e-001
78	 9.7000000000e+001	 9.99279e-001
79	 9.8000000000e+001	 9.99285e-001
80	 9.9000000000e+001	 9.99315e-001
81	 1.0000000000e+002	 9.99331e-001
82	 1.0100000000e+002	 9.99372e-001
83	 1.0200000000e+002	 9.99410e-001
84	 1.0300000000e+002	 9.99435e-001
85	 1.0400000000e+002	 9.99425e-001
86	 1.0500000000e+002	 9.99418e-001
87	 1.0600000000e+002	 9.99419e-001
88	 1.0700000000e+002	 9.99396e-001
89	 1.0800000000e+002	 9.99411e-001
90	 1.0900000000e+002	 9.99442e-001
91	 1.1000000000e+002	 9.99438e-001
92	 1.1100000000e+002	 9.99442e-001
93	 1.1200000000e+002	 9.99429e-001
94	 1.1300000000e+002	 9.99407e-001
95	 1.1400000000e+002	 9.99401e-001
96	 1.1500000000e+002	 9.99357e-001
97	 1.1600000000e+002	 9.99313e-001
98	 1.1700000000e+002	 9.99329e-001
99	 1.1800000000e+002	 9.99313e-001
100	 1.1900000000e+002	 9.99275e-001
101	 1.2000000000e+002	 9.99241e-001
102	 1.2100000000e+002	 9.99192e-001
103	 1.2200000000e+002	 9.99131e-001
104	 1.2300000000e+002	 9.99076e-001
105	 1.2400000000e+002	 9.98976e-001
106	 1.2500000000e+002	 9.98828e-001
107	 1.2600000000e+002	 9.98768e-001
108	 1.2700000000e+002	 9.98693e-001
109	 1.2800000000e+002	 9.98522e-001
110	 1.2900000000e+002	 9.98293e-001
111	 1.3000000000e+002	 9.98008e-001
112	 1.3100000000e+002	 9.97685e-001
113	 1.3200000000e+002	 9.97300e-001
114	 1.3300000000e+002	 9.96726e-001
115	 1.3400000000e+002	 9.95869e-001
116	 1.3500000000e+002	 9.94794e-001
117	 1.3600000000e+002	 9.93620e-001
118	 1.3700000000e+002	 9.92064e-001
119	 1.3800000000e+002	 9.89837e-001
120	 1.3900000000e+002	 9.86100e-001
121	 1.4000000000e+002	 9.80345e-001
122	 1.4100000000e+002	 9.71007e-001
123	 1.4200000000e+002	 9.54825e-001
124	 1.4300000000e+002	 9.22030e-001
125	 1.4400000000e+002	 8.61936e-001
126	 1.4500000000e+002	 8.36564e-001
127	 1.4600000000e+002	 8.97335e-001
128	 1.4700000000e+002	 9.45439e-001
129	 1.4800000000e+002	 9.69899e-001
130	 1.4900000000e+002	 9.81744e-001
131	 1.5000000000e+002	 9.86836e-001
132	 1.5100000000e+002	 9.90173e-001
133	 1.5200000000e+002	 9.92473e-001
134	 1.5300000000e+002	 9.94060e-001
135	 1.5400000000e+002	 9.95005e-001
136	 1.5500000000e+002	 9.95440e-001
137	 1.5600000000e+002	 9.95708e-001
138	 1.5700000000e+002	 9.96139e-001
139	 1.5800000000e+002	 9.96670e-001
140	 1.5900000000e+002	 9.97237e-001
141	 1.6000000000e+002	 9.97775e-001
142	 1.6100000000e+002	 9.98177e-001
143	 1.6200000000e+002	 9.98491e-001
144	 1.6300000000e+002	 9.98731e-001
145	 1.6400000000e+002	 9.98920e-001
146	 1.6500000000e+002	 9.99088e-001
147	 1.6600000000e+002	 9.99191e-001
148	 1.6700000000e+002	 9.99215e-001
149	 1.6800000000e+002	 9.99189e-001
150	 1.6900000000e+002	 9.99148e-001
151	 1.7000000000e+002	 9.99119e-001
152	 1.7100000000e+002	 9.99096e-001
153	 1.7200000000e+002	 9.99067e-001
154	 1.7300000000e+002	 9.99047e-001
155	 1.7400000000e+002	 9.99027e-001
156	 1.7500000000e+002	 9.98970e-001
157	 1.7600000000e+002	 9.98940e-001
158	 1.7700000000e+002	 9.98900e-001
159	 1.7800000000e+002	 9.98893e-001
160	 1.7900000000e+002	 9.98905e-001
161	 1.8000000000e+002	 9.98857e-001
162	 1.8100000000e+002	 9.98759e-001
163	 1.8200000000e+002	 9.98620e-001
164	 1.8300000000e+002	 9.98501e-001
165	 1.8400000000e+002	 9.98411e-001
166	 1.8500000000e+002	 9.98277e-001
167	 1.8600000000e+002	 9.98055e-001
168	 1.8700000000e+002	 9.97809e-001
169	 1.8800000000e+002	 9.97466e-001
170	 1.8900000000e+002	 9.96866e-001
171	 1.9000000000e+002	 9.96066e-001
172	 1.9100000000e+002	 9.95162e-001
173	 1.9200000000e+002	 9.94013e-001
174	 1.9300000000e+002	 9.92364e-001
175	 1.9400000000e+002	 9.89711e-001
176	 1.9500000000e+002	 9.85585e-001
177	 1.9600000000e+002	 9.79127e-001
178	 1.9700000000e+002	 9.69090e-001
179	 1.9800000000e+002	 9.56119e-001
180	 1.9900000000e+002	 9.48212e-001
181	 2.0000000000e+002	 9.54721e-001
182	 2.0100000000e+002	 9.68765e-001
183	 2.0200000000e+002	 9.79874e-001
184	 2.0300000000e+002	 9.86763e-001
185	 2.0400000000e+002	 9.91060e-001
186	 2.0500000000e+002	 9.93686e-001
187	 2.0600000000e+002	 9.95481e-001
188	 2.0700000000e+002	 9.96734e-001
189	 2.0800000000e+002	 9.97520e-001
190	 2.0900000000e+002	 9.98042e-001
191	 2.1000000000e+002	 9.98353e-001
192	 2.1100000000e+002	 9.98619e-001
193	 2.1200000000e+002	 9.98830e-001
194	 2.1300000000e+002	 9.99009e-001
195	 2.1400000000e+002	 9.99215e-001
196	 2.1500000000e+002	 9.99392e-001
197	 2.1600000000e+002	 9.99509e-001
198	 2.1700000000e+002	 9.99595e-001
199	 2.1800000000e+002	 9.99648e-001
200	 2.1900000000e+002	 9.99667e-001
201	 2.2000000000e+002	 9.99668e-001
202	 2.2100000000e+002	 9.99676e-001
203	 2.2200000000e+002	 9.99648e-001
204	 2.2300000000e+002	 9.99646e-001
205	 2.2400000000e+002	 9.99648e-001
206	 2.2500000000e+002	 9.99654e-001
207	 2.2600000000e+002	 9.99634e-001
208	 2.2700000000e+002	 9.99629e-001
209	 2.2800000000e+002	 9.99632e-001
210	 2.2900000000e+002	 9.99609e-001
211	 2.3000000000e+002	 9.99619e-001
212	 2.3100000000e+002	 9.99619e-001
213	 2.3200000000e+002	 9.99624e-001
214	 2.3300000000e+002	 9.99615e-001
215	 2.3400000000e+002	 9.99620e-001
216	 2.3500000000e+002	 9.99617e-001
217	 2.3600000000e+002	 9.99619e-001
218	 2.3700000000e+002	 9.99625e-001
219	 2.3800000000e+002	 9.99625e-001
220	 2.3900000000e+002	 9.99629e-001
221	 2.4000000000e+002	 9.99628e-001
222	 2.4100000000e+002	 9.99649e-001
223	 2.4200000000e+002	 9.99656e-001
224	 2.4300000000e+002	 9.99654e-001
225	 2.4400000000e+002	 9.99646e-001
226	 2.4500000000e+002	 9.99648e-001
227	 2.4600000000e+002	 9.99640e-001
228	 2.4700000000e+002	 9.99628e-001
229	 2.4800000000e+002	 9.99619e-001
230	 2.4900000000e+002	 9.99602e-001
231	 2.5000000000e+002	 9.99592e-001
232	 2.5100000000e+002	 9.99614e-001
233	 2.5200000000e+002	 9.99604e-001
234	 2.5300000000e+002	 9.99597e-001
235	 2.5400000000e+002	 9.99596e-001
236	 2.5500000000e+002	 9.99579e-001
237	 2.5600000000e+002	 9.99558e-001
238	 2.5700000000e+002	 9.99550e-001
239	 2.5800000000e+002	 9.99518e-001
240	 2.5900000000e+002	 9.99489e-001
241	 2.6000000000e+002	 9.99484e-001
242	 2.6100000000e+002	 9.99457e-001
243	 2.6200000000e+002	 9.99448e-001
244	 2.6300000000e+002	 9.99402e-001
245	 2.6400000000e+002	 9.99383e-001
246	 2.6500000000e+002	 9.99352e-001
247	 2.6600000000e+002	 9.99321e-001
248	 2.6700000000e+002	 9.99247e-001
249	 2.6800000000e+002	 9.99221e-001
250	 2.6900000000e+002	 9.99157e-001
251	 2.7000000000e+002	 9.99114e-001
252	 2.7100000000e+002	 9.99017e-001
253	 2.7200000000e+002	 9.99027e-001
254	 2.7300000000e+002	 9.98956e-001
255	 2.7400000000e+002	 9.98909e-001
256	 2.7500000000e+002	 9.98837e-001
257	 2.7600000000e+002	 9.98738e-001
258	 2.7700000000e+002	 9.98684e-001
259	 2.7800000000e+002	 9.98644e-001
260	 2.7900000000e+002	 9.98622e-001
261	 2.8000000000e+002	 9.98547e-001
262	 2.8100000000e+002	 9.98551e-001
263	 2.8200000000e+002	 9.98557e-001
264	 2.8300000000e+002	 9.98542e-001
265	 2.8400000000e+002	 9.98601e-001
266	 2.8500000000e+002	 9.98591e-001
267	 2.8600000000e+002	 9.98621e-001
268	 2.8700000000e+002	 9.98687e-001
269	 2.8800000000e+002	 9.98711e-001
270	 2.8900000000e+002	 9.98793e-001
271	 2.9000000000e+002	 9.98849e-001
272	 2.9100000000e+002	 9.98881e-001
273	 2.9200000000e+002	 9.98942e-001
274	 2.9300000000e+002	 9.98997e-001
275	 2.9400000000e+002	 9.99040e-001
276	 2.9500000000e+002	 9.99108e-001
277	 2.9600000000e+002	 9.99140e-001
278	 2.9700000000e+002	 9.99181e-001
279	 2.9800000000e+002	 9.99195e-001
280	 2.9900000000e+002	 9.99201e-001
281	 3.0000000000e+002	 9.99252e-001
282	 3.0100000000e+002	 9.99282e-001
283	 3.0200000000e+002	 9.99288e-001
284	 3.0300000000e+002	 9.99331e-001
285	 3.0400000000e+002	 9.99359e-001
286	 3.0500000000e+002	 9.99348e-001
287	 3.0600000000e+002	 9.99373e-001
288	 3.0700000000e+002	 9.99419e-001
289	 3.0800000000e+002	 9.99388e-001
290	 3.0900000000e+002	 9.99414e-001
291	 3.1000000000e+002	 9.99404e-001
292	 3.1100000000e+002	 9.99402e-001
293	 3.1200000000e+002	 9.99415e-001
294	 3.1300000000e+002	 9.99426e-001
295	 3.1400000000e+002	 9.99428e-001
296	 3.1500000000e+002	 9.99428e-001
297	 3.1600000000e+002	 9.99427e-001
298	 3.1700000000e+002	 9.99441e-001
299	 3.1800000000e+002	 9.99462e-001
300	 3.1900000000e+002	 9.99449e-001
301	 3.2000000000e+002	 9.99471e-001
302	 3.2100000000e+002	 9.99469e-001
303	 3.2200000000e+002	 9.99488e-001
304	 3.2300000000e+002	 9.99473e-001
305	 3.2400000000e+002	 9.99486e-001
306	 3.2500000000e+002	 9.99506e-001
307	 3.2600000000e+002	 9.99490e-001
308	 3.2700000000e+002	 9.99509e-001
309	 3.2800000000e+002	 9.99518e-001
310	 3.2900000000e+002	 9.99525e-001
311	 3.3000000000e+002	 9.99539e-001
312	 3.3100000000e+002	 9.99550e-001
313	 3.3200000000e+002	 9.99569e-001
314	 3.3300000000e+002	 9.99592e-001
315	 3.3400000000e+002	 9.99581e-001
316	 3.3500000000e+002	 9.99598e-001
317	 3.3600000000e+002	 9.99615e-001
318	 3.3700000000e+002	 9.99617e-001
319	 3.3800000000e+002	 9.99620e-001
320	 3.3900000000e+002	 9.99652e-001
321	 3.4000000000e+002	 9.99649e-001
322	 3.4100000000e+002	 9.99655e-001
323	 3.4200000000e+002	 9.99658e-001
324	 3.4300000000e+002	 9.99669e-001
325	 3.4400000000e+002	 9.99675e-001
326	 3.4500000000e+002	 9.99667e-001
327	 3.4600000000e+002	 9.99661e-001
328	 3.4700000000e+002	 9.99654e-001
329	 3.4800000000e+002	 9.99634e-001
330	 3.4900000000e+002	 9.99624e-001
331	 3.5000000000e+002	 9.99622e-001
332	 3.5100000000e+002	 9.99609e-001
333	 3.5200000000e+002	 9.99583e-001
334	 3.5300000000e+002	 9.99593e-001
335	 3.5400000000e+002	 9.99555e-001
336	 3.5500000000e+002	 9.99565e-001
337	 3.5600000000e+002	 9.99522e-001
338	 3.5700000000e+002	 9.99508e-001
339	 3.5800000000e+002	 9.99450e-001
340	 3.5900000000e+002	 9.99440e-001
341	 3.6000000000e+002	 9.99392e-001
342	 3.6100000000e+002	 9.99383e-001
343	 3.6200000000e+002	 9.99332e-001
344	 3.6300000000e+002	 9.99319e-001
345	 3.6400000000e+002	 9.99249e-001
346	 3.6500000000e+002	 9.99195e-001
347	 3.6600000000e+002	 9.99226e-001
348	 3.6700000000e+002	 9.99127e-001
349	 3.6800000000e+002	 9.99135e-001
350	 3.6900000000e+002	 9.99089e-001
351	 3.7000000000e+002	 9.99104e-001
352	 3.7100000000e+002	 9.99081e-001
353	 3.7200000000e+002	 9.99050e-001
354	 3.7300000000e+002	 9.99025e-001
355	 3.7400000000e+002	 9.99006e-001
356	 3.7500000000e+002	 9.98961e-001
357	 3.7600000000e+002	 9.98932e-001
358	 3.7700000000e+002	 9.98899e-001
359	 3.7800000000e+002	 9.98888e-001
360	 3.7900000000e+002	 9.98827e-001
361	 3.8000000000e+002	 9.98815e-001
362	 3.8100000000e+002	 9.98762e-001
363	 3.8200000000e+002	 9.98716e-001
364	 3.8300000000e+002	 9.98628e-001
365	 3.8400000000e+002	 9.98537e-001
366	 3.8500000000e+002	 9.98492e-001
367	 3.8600000000e+002	 9.98367e-001
368	 3.8700000000e+002	 9.98272e-001
369	 3.8800000000e+002	 9.98135e-001
370	 3.8900000000e+002	 9.97984e-001
371	 3.9000000000e+002	 9.97848e-001
372	 3.9100000000e+002	 9.97572e-001
373	 3.9200000000e+002	 9.97337e-001
374	 3.9300000000e+002	 9.97074e-001
375	 3.9400000000e+002	 9.96763e-001
376	 3.9500000000e+002	 9.96502e-001
377	 3.9600000000e+002	 9.96236e-001
378	 3.9700000000e+002	 9.95975e-001
379	 3.9800000000e+002	 9.95825e-001
380	 3.9900000000e+002	 9.95761e-001
381	 4.0000000000e+002	 9.95783e-001
382	 4.0100000000e+002	 9.95927e-001
383	 4.0200000000e+002	 9.96170e-001
384	 4.0300000000e+002	 9.96443e-001
385	 4.0400000000e+002	 9.96735e-001
386	 4.0500000000e+002	 9.97036e-001
387	 4.0600000000e+002	 9.97330e-001
388	 4.0700000000e+002	 9.97626e-001
389	 4.0800000000e+002	 9.97888e-001
390	 4.0900000000e+002	 9.98095e-001
391	 4.1000000000e+002	 9.98305e-001
392	 4.1100000000e+002	 9.98469e-001
393	 4.1200000000e+002	 9.98615e-001
394	 4.1300000000e+002	 9.98759e-001
395	 4.1400000000e+002	 9.98874e-001
396	 4.1500000000e+002	 9.98953e-001
397	 4.1600000000e+002	 9.99023e-001
398	 4.1700000000e+002	 9.99098e-001
399	 4.1800000000e+002	 9.99151e-001
400	 4.1900000000e+002	 9.99203e-001
401	 4.2000000000e+002	 9.99240e-001
402	 4.2100000000e+002	 9.99286e-001
403	 4.2200000000e+002	 9.99319e-001
404	 4.2300000000e+002	 9.99337e-001
405	 4.2400000000e+002	 9.99362e-001
406	 4.2500000000e+002	 9.99395e-001
407	 4.2600000000e+002	 9.99399e-001
408	 4.2700000000e+002	 9.99422e-001
409	 4.2800000000e+002	 9.99420e-001
410	 4.2900000000e+002	 9.99440e-001
411	 4.3000000000e+002	 9.99438e-001
412	 4.3100000000e+002	 9.99445e-001
413	 4.3200000000e+002	 9.99453e-001
414	 4.3300000000e+002	 9.99450e-001
415	 4.3400000000e+002	 9.99448e-001
416	 4.3500000000e+002	 9.99425e-001
417	 4.3600000000e+002	 9.99434e-001
418	 4.3700000000e+002	 9.99408e-001
419	 4.3800000000e+002	 9.99388e-001
420	 4.3900000000e+002	 9.99367e-001
421	 4.4000000000e+002	 9.99343e-001
422	 4.4100000000e+002	 9.99320e-001
423	 4.4200000000e+002	 9.99291e-001
424	 4.4300000000e+002	 9.99252e-001
425	 4.4400000000e+002	 9.99192e-001
426	 4.4500000000e+002	 9.99161e-001
427	 4.4600000000e+002	 9.99113e-001
428	 4.4700000000e+002	 9.99024e-001
429	 4.4800000000e+002	 9.98937e-001
430	 4.4900000000e+002	 9.98729e-001
431	 4.5000000000e+002	 9.98318e-001
432	 4.5100000000e+002	 9.98472e-001
433	 4.5200000000e+002	 9.98363e-001
434	 4.5300000000e+002	 9.98120e-001
435	 4.5400000000e+002	 9.97932e-001
436	 4.5500000000e+002	 9.97544e-001
437	 4.5600000000e+002	 9.97125e-001
438	 4.5700000000e+002	 9.96419e-001
439	 4.5800000000e+002	 9.95628e-001
440	 4.5900000000e+002	 9.94596e-001
441	 4.6000000000e+002	 9.92708e-001
442	 4.6100000000e+002	 9.90669e-001
443	 4.6200000000e+002	 9.86672e-001
444	 4.6300000000e+002	 9.80025e-001
445	 4.6400000000e+002	 9.69587e-001
446	 4.6500000000e+002	 9.54337e-001
447	 4.6600000000e+002	 9.40363e-001
448	 4.6700000000e+002	 9.43648e-001
449	 4.6800000000e+002	 9.58051e-001
450	 4.6900000000e+002	 9.72053e-001
451	 4.7000000000e+002	 9.81213e-001
452	 4.7100000000e+002	 9.86728e-001
453	 4.7200000000e+002	 9.89924e-001
454	 4.7300000000e+002	 9.92256e-001
455	 4.7400000000e+002	 9.93879e-001
456	 4.7500000000e+002	 9.94958e-001
457	 4.7600000000e+002	 9.95724e-001
458	 4.7700000000e+002	 9.96441e-001
459	 4.7800000000e+002	 9.96790e-001
460	 4.7900000000e+002	 9.97168e-001
461	 4.8000000000e+002	 9.97579e-001
462	 4.8100000000e+002	 9.97750e-001
463	 4.8200000000e+002	 9.97917e-001
464	 4.8300000000e+002	 9.98119e-001
465	 4.8400000000e+002	 9.98259e-001
466	 4.8500000000e+002	 9.98291e-001
467	 4.8600000000e+002	 9.98368e-001
468	 4.8700000000e+002	 9.98479e-001
469	 4.8800000000e+002	 9.98507e-001
470	 4.8900000000e+002	 9.98533e-001
471	 4.9000000000e+002	 9.98558e-001
472	 4.9100000000e+002	 9.98554e-001
473	 4.9200000000e+002	 9.98550e-001
474	 4.9300000000e+002	 9.98503e-001
475	 4.9400000000e+002	 9.98412e-001
476	 4.9500000000e+002	 9.98382e-001
477	 4.9600000000e+002	 9.98386e-001
478	 4.9700000000e+002	 9.98348e-001
479	 4.9800000000e+002	 9.98351e-001
480	 4.9900000000e+002	 9.98285e-001
481	 5.0000000000e+002	 9.98207e-001
482	 5.0100000000e+002	 9.98093e-001
483	 5.0200000000e+002	 9.97929e-001
484	 5.0300000000e+002	 9.97783e-001
485	 5.0400000000e+002	 9.97574e-001
486	 5.0500000000e+002	 9.97304e-001
487	 5.0600000000e+002	 9.96972e-001
488	 5.0700000000e+002	 9.96554e-001
489	 5.0800000000e+002	 9.96088e-001
490	 5.0900000000e+002	 9.95392e-001
491	 5.1000000000e+002	 9.94452e-001
492	 5.1100000000e+002	 9.93084e-001
493	 5.1200000000e+002	 9.91321e-001
494	 5.1300000000e+002	 9.88771e-001
495	 5.1400000000e+002	 9.84946e-001
496	 5.1500000000e+002	 9.79488e-001
497	 5.1600000000e+002	 9.72285e-001
498	 5.1700000000e+002	 9.65278e-001
499	 5.1800000000e+002	 9.63132e-001
500	 5.1900000000e+002	 9.67907e-001
501	 5.2000000000e+002	 9.75353e-001
502	 5.2100000000e+002	 9.81984e-001
503	 5.2200000000e+002	 9.86991e-001
504	 5.2300000000e+002	 9.90561e-001
505	 5.2400000000e+002	 9.93015e-001
506	 5.2500000000e+002	 9.94657e-001
507	 5.2600000000e+002	 9.95754e-001
508	 5.2700000000e+002	 9.96533e-001
509	 5.2800000000e+002	 9.97131e-001
510	 5.2900000000e+002	 9.97613e-001
511	 5.3000000000e+002	 9.97991e-001
512	 5.3100000000e+002	 9.98336e-001
513	 5.3200000000e+002	 9.98609e-001
514	 5.3300000000e+002	 9.98780e-001
515	 5.3400000000e+002	 9.98889e-001
516	 5.3500000000e+002	 9.98987e-001
517	 5.3600000000e+002	 9.99077e-001
518	 5.3700000000e+002	 9.99175e-001
519	 5.3800000000e+002	 9.99259e-001
520	 5.3900000000e+002	 9.99318e-001
521	 5.4000000000e+002	 9.99363e-001
522	 5.4100000000e+002	 9.99409e-001
523	 5.4200000000e+002	 9.99447e-001
524	 5.4300000000e+002	 9.99485e-001
525	 5.4400000000e+002	 9.99510e-001
526	 5.4500000000e+002	 9.99530e-001
527	 5.4600000000e+002	 9.99545e-001
528	 5.4700000000e+002	 9.99566e-001
529	 5.4800000000e+002	 9.99593e-001
530	 5.4900000000e+002	 9.99607e-001
531	 5.5000000000e+002	 9.99601e-001
532	 5.5100000000e+002	 9.99628e-001
533	 5.5200000000e+002	 9.99625e-001
534	 5.5300000000e+002	 9.99636e-001
535	 5.5400000000e+002	 9.99661e-001
536	 5.5500000000e+002	 9.99641e-001
537	 5.5600000000e+002	 9.99661e-001
538	 5.5700000000e+002	 9.99685e-001
539	 5.5800000000e+002	 9.99640e-001
540	 5.5900000000e+002	 9.99653e-001
541	 5.6000000000e+002	 9.99695e-001
542	 5.6100000000e+002	 9.99668e-001
543	 5.6200000000e+002	 9.99659e-001
544	 5.6300000000e+002	 9.99662e-001
545	 5.6400000000e+002	 9.99670e-001
546	 5.6500000000e+002	 9.99671e-001
547	 5.6600000000e+002	 9.99640e-001
548	 5.6700000000e+002	 9.99639e-001
549	 5.6800000000e+002	 9.99629e-001
550	 5.6900000000e+002	 9.99619e-001
551	 5.7000000000e+002	 9.99605e-001
552	 5.7100000000e+002	 9.99620e-001
553	 5.7200000000e+002	 9.99565e-001
554	 5.7300000000e+002	 9.99575e-001
555	 5.7400000000e+002	 9.99522e-001
556	 5.7500000000e+002	 9.99526e-001
557	 5.7600000000e+002	 9.99487e-001
558	 5.7700000000e+002	 9.99435e-001
559	 5.7800000000e+002	 9.99430e-001
560	 5.7900000000e+002	 9.99373e-001
561	 5.8000000000e+002	 9.99334e-001
562	 5.8100000000e+002	 9.99282e-001
563	 5.8200000000e+002	 9.99178e-001
564	 5.8300000000e+002	 9.99132e-001
565	 5.8400000000e+002	 9.99038e-001
566	 5.8500000000e+002	 9.98938e-001
567	 5.8600000000e+002	 9.98808e-001
568	 5.8700000000e+002	 9.98580e-001
569	 5.8800000000e+002	 9.98463e-001
570	 5.8900000000e+002	 9.98200e-001
571	 5.9000000000e+002	 9.98004e-001
572	 5.9100000000e+002	 9.97447e-001
573	 5.9200000000e+002	 9.97019e-001
574	 5.9300000000e+002	 9.96418e-001
575	 5.9400000000e+002	 9.95424e-001
576	 5.9500000000e+002	 9.94237e-001
577	 5.9600000000e+002	 9.92396e-001
578	 5.9700000000e+002	 9.90270e-001
579	 5.9800000000e+002	 9.86815e-001
580	 5.9900000000e+002	 9.82218e-001
581	 6.0000000000e+002	 9.76201e-001
582	 6.0100000000e+002	 9.74624e-001
583	 6.0200000000e+002	 9.72644e-001
584	 6.0300000000e+002	 9.76954e-001
585	 6.0400000000e+002	 9.81104e-001
586	 6.0500000000e+002	 9.85706e-001
587	 6.0600000000e+002	 9.88954e-001
588	 6.0700000000e+002	 9.90957e-001
589	 6.0800000000e+002	 9.93209e-001
590	 6.0900000000e+002	 9.94457e-001
591	 6.1000000000e+002	 9.95074e-001
592	 6.1100000000e+002	 9.95877e-001
593	 6.1200000000e+002	 9.96381e-001
594	 6.1300000000e+002	 9.96810e-001
595	 6.1400000000e+002	 9.97091e-001
596	 6.1500000000e+002	 9.97500e-001
597	 6.1600000000e+002	 9.97627e-001
598	 6.1700000000e+002	 9.97779e-001
599	 6.1800000000e+002	 9.97983e-001
600	 6.1900000000e+002	 9.98167e-001
601	 6.2000000000e+002	 9.98173e-001
602	 6.2100000000e+002	 9.98219e-001
603	 6.2200000000e+002	 9.98322e-001
604	 6.2300000000e+002	 9.98427e-001
605	 6.2400000000e+002	 9.98476e-001
606	 6.2500000000e+002	 9.98430e-001
607	 6.2600000000e+002	 9.98452e-001
608	 6.2700000000e+002	 9.98412e-001
609	 6.2800000000e+002	 9.98462e-001
610	 6.2900000000e+002	 9.98492e-001
611	 6.3000000000e+002	 9.98428e-001
612	 6.3100000000e+002	 9.98399e-001
613	 6.3200000000e+002	 9.98304e-001
614	 6.3300000000e+002	 9.98269e-001
615	 6.3400000000e+002	 9.98177e-001
616	 6.3500000000e+002	 9.98070e-001
617	 6.3600000000e+002	 9.97987e-001
618	 6.3700000000e+002	 9.97840e-001
619	 6.3800000000e+002	 9.97662e-001
620	 6.3900000000e+002	 9.97488e-001
621	 6.4000000000e+002	 9.97264e-001
622	 6.4100000000e+002	 9.96972e-001
623	 6.4200000000e+002	 9.96565e-001
624	 6.4300000000e+002	 9.96094e-001
625	 6.4400000000e+002	 9.95544e-001
626	 6.4500000000e+002	 9.94857e-001
627	 6.4600000000e+002	 9.94029e-001
628	 6.4700000000e+002	 9.92935e-001
629	 6.4800000000e+002	 9.91733e-001
630	 6.4900000000e+002	 9.90460e-001
631	 6.5000000000e+002	 9.89304e-001
632	 6.5100000000e+002	 9.88554e-001
633	 6.5200000000e+002	 9.88342e-001
634	 6.5300000000e+002	 9.88907e-001
635	 6.5400000000e+002	 9.90041e-001
636	 6.5500000000e+002	 9.91464e-001
637	 6.5600000000e+002	 9.92878e-001
638	 6.5700000000e+002	 9.94149e-001
639	 6.5800000000e+002	 9.95179e-001
640	 6.5900000000e+002	 9.96051e-001
641	 6.6000000000e+002	 9.96701e-001
642	 6.6100000000e+002	 9.97236e-001
643	 6.6200000000e+002	 9.97643e-001
644	 6.6300000000e+002	 9.97975e-001
645	 6.6400000000e+002	 9.98261e-001
646	 6.6500000000e+002	 9.98491e-001
647	 6.6600000000e+002	 9.98675e-001
648	 6.6700000000e+002	 9.98841e-001
649	 6.6800000000e+002	 9.98955e-001
650	 6.6900000000e+002	 9.99047e-001
651	 6.7000000000e+002	 9.99154e-001
652	 6.7100000000e+002	 9.99228e-001
653	 6.7200000000e+002	 9.99291e-001
654	 6.7300000000e+002	 9.99345e-001
655	 6.7400000000e+002	 9.99392e-001
656	 6.7500000000e+002	 9.99432e-001
657	 6.7600000000e+002	 9.99479e-001
658	 6.7700000000e+002	 9.99506e-001
659	 6.7800000000e+002	 9.99534e-001
660	 6.7900000000e+002	 9.99560e-001
661	 6.8000000000e+002	 9.99575e-001
662	 6.8100000000e+002	 9.99589e-001
663	 6.8200000000e+002	 9.99615e-001
664	 6.8300000000e+002	 9.99637e-001
665	 6.8400000000e+002	 9.99653e-001
666	 6.8500000000e+002	 9.99658e-001
667	 6.8600000000e+002	 9.99665e-001
668	 6.8700000000e+002	 9.99671e-001
669	 6.8800000000e+002	 9.99685e-001
670	 6.8900000000e+002	 9.99696e-001
671	 6.9000000000e+002	 9.99699e-001
672	 6.9100000000e+002	 9.99703e-001
673	 6.9200000000e+002	 9.99712e-001
674	 6.9300000000e+002	 9.99719e-001
675	 6.9400000000e+002	 9.99706e-001
676	 6.9500000000e+002	 9.99720e-001
677	 6.9600000000e+002	 9.99724e-001
678	 6.9700000000e+002	 9.99723e-001
679	 6.9800000000e+002	 9.99725e-001
680	 6.9900000000e+002	 9.99719e-001
681	 7.0000000000e+002	 9.99711e-001
682	 7.0100000000e+002	 9.99713e-001
683	 7.0200000000e+002	 9.99710e-001
684	 7.0300000000e+002	 9.99715e-001
685	 7.0400000000e+002	 9.99707e-001
686	 7.0500000000e+002	 9.99684e-001
687	 7.0600000000e+002	 9.99715e-001
688	 7.0700000000e+002	 9.99686e-001
689	 7.0800000000e+002	 9.99650e-001
690	 7.0900000000e+002	 9.99676e-001
691	 7.1000000000e+002	 9.99637e-001
692	 7.1100000000e+002	 9.99649e-001
693	 7.1200000000e+002	 9.99626e-001
694	 7.1300000000e+002	 9.99595e-001
695	 7.1400000000e+002	 9.99598e-001
696	 7.1500000000e+002	 9.99546e-001
697	 7.1600000000e+002	 9.99535e-001
698	 7.1700000000e+002	 9.99501e-001
699	 7.1800000000e+002	 9.99467e-001
700	 7.1900000000e+002	 9.99421e-001
701	 7.2000000000e+002	 9.99446e-001
702	 7.2100000000e+002	 9.99272e-001
703	 7.2200000000e+002	 9.99312e-001
704	 7.2300000000e+002	 9.99233e-001
705	 7.2400000000e+002	 9.99144e-001
706	 7.2500000000e+002	 9.99098e-001
707	 7.2600000000e+002	 9.98910e-001
708	 7.2700000000e+002	 9.98769e-001
709	 7.2800000000e+002	 9.98761e-001
710	 7.2900000000e+002	 9.98402e-001
711	 7.3000000000e+002	 9.98300e-001
712	 7.3100000000e+002	 9.98004e-001
713	 7.3200000000e+002	 9.97668e-001
714	 7.3300000000e+002	 9.97281e-001
715	 7.3400000000e+002	 9.96830e-001
716	 7.3500000000e+002	 9.96352e-001
717	 7.3600000000e+002	 9.95349e-001
718	 7.3700000000e+002	 9.94827e-001
719	 7.3800000000e+002	 9.94084e-001
720	 7.3900000000e+002	 9.93082e-001
721	 7.4000000000e+002	 9.91617e-001
722	 7.4100000000e+002	 9.92406e-001
723	 7.4200000000e+002	 9.91890e-001
724	 7.4300000000e+002	 9.91687e-001
725	 7.4400000000e+002	 9.92424e-001
726	 7.4500000000e+002	 9.93392e-001
727	 7.4600000000e+002	 9.93953e-001
728	 7.4700000000e+002	 9.94558e-001
729	 7.4800000000e+002	 9.95337e-001
730	 7.4900000000e+002	 9.96057e-001
731	 7.5000000000e+002	 9.96225e-001
732	 7.5100000000e+002	 9.96610e-001
733	 7.5200000000e+002	 9.96946e-001
734	 7.5300000000e+002	 9.97320e-001
735	 7.5400000000e+002	 9.97568e-001
736	 7.5500000000e+002	 9.97670e-001
737	 7.5600000000e+002	 9.97838e-001
738	 7.5700000000e+002	 9.97957e-001
739	 7.5800000000e+002	 9.98014e-001
740	 7.5900000000e+002	 9.98129e-001
741	 7.6000000000e+002	 9.98225e-001
742	 7.6100000000e+002	 9.98299e-001
743	 7.6200000000e+002	 9.98286e-001
744	 7.6300000000e+002	 9.98293e-001
745	 7.6400000000e+002	 9.98344e-001
746	 7.6500000000e+002	 9.98355e-001
747	 7.6600000000e+002	 9.98353e-001
748	 7.6700000000e+002	 9.98357e-001
749	 7.6800000000e+002	 9.98328e-001
750	 7.6900000000e+002	 9.98300e-001
751	 7.7000000000e+002	 9.98248e-001
752	 7.7100000000e+002	 9.98141e-001
753	 7.7200000000e+002	 9.98084e-001
754	 7.7300000000e+002	 9.97997e-001
755	 7.7400000000e+002	 9.97887e-001
756	 7.7500000000e+002	 9.97814e-001
757	 7.7600000000e+002	 9.97654e-001
758	 7.7700000000e+002	 9.97557e-001
759	 7.7800000000e+002	 9.97318e-001
760	 7.7900000000e+002	 9.97133e-001
761	 7.8000000000e+002	 9.96863e-001
762	 7.8100000000e+002	 9.96630e-001
763	 7.8200000000e+002	 9.96304e-001
764	 7.8300000000e+002	 9.95967e-001
765	 7.8400000000e+002	 9.95624e-001
766	 7.8500000000e+002	 9.95377e-001
767	 7.8600000000e+002	 9.95102e-001
768	 7.8700000000e+002	 9.94983e-001
769	 7.8800000000e+002	 9.95014e-001
770	 7.8900000000e+002	 9.95096e-001
771	 7.9000000000e+002	 9.95391e-001
772	 7.9100000000e+002	 9.95692e-001
773	 7.9200000000e+002	 9.96127e-001
774	 7.9300000000e+002	 9.96541e-001
775	 7.9400000000e+002	 9.96950e-001
776	 7.9500000000e+002	 9.97317e-001
777	 7.9600000000e+002	 9.97650e-001
778	 7.9700000000e+002	 9.97948e-001
779	 7.9800000000e+002	 9.98163e-001
780	 7.9900000000e+002	 9.98402e-001
781	 8.0000000000e+002	 9.98588e-001
782	 8.0100000000e+002	 9.98722e-001
783	 8.0200000000e+002	 9.98849e-001
784	 8.0300000000e+002	 9.98973e-001
785	 8.0400000000e+002	 9.99087e-001
786	 8.0500000000e+002	 9.99148e-001
787	 8.0600000000e+002	 9.99216e-001
788	 8.0700000000e+002	 9.99281e-001
789	 8.0800000000e+002	 9.99340e-001
790	 8.0900000000e+002	 9.99400e-001
791	 8.1000000000e+002	 9.99440e-001
792	 8.1100000000e+002	 9.99459e-001
793	 8.1200000000e+002	 9.99498e-001
794	 8.1300000000e+002	 9.99531e-001
795	 8.1400000000e+002	 9.99557e-001
796	 8.1500000000e+002	 9.99591e-001
797	 8.1600000000e+002	 9.99617e-001
798	 8.1700000000e+002	 9.99615e-001
799	 8.1800000000e+002	 9.99638e-001
800	 8.1900000000e+002	 9.99645e-001
801	 8.2000000000e+002	 9.99672e-001
802	 8.2100000000e+002	 9.99689e-001
803	 8.2200000000e+002	 9.99700e-001
804	 8.2300000000e+002	 9.99702e-001
805	 8.2400000000e+002	 9.99715e-001
806	 8.2500000000e+002	 9.99729e-001
807	 8.2600000000e+002	 9.99743e-001
808	 8.2700000000e+002	 9.99737e-001
809	 8.2800000000e+002	 9.99742e-001
810	 8.2900000000e+002	 9.99751e-001
811	 8.3000000000e+002	 9.99767e-001
812	 8.3100000000e+002	 9.99762e-001
813	 8.3200000000e+002	 9.99768e-001
814	 8.3300000000e+002	 9.99770e-001
815	 8.3400000000e+002	 9.99760e-001
816	 8.3500000000e+002	 9.99766e-001
817	 8.3600000000e+002	 9.99774e-001
818	 8.3700000000e+002	 9.99770e-001
819	 8.3800000000e+002	 9.99772e-001
820	 8.3900000000e+002	 9.99773e-001
821	 8.4000000000e+002	 9.99776e-001
822	 8.4100000000e+002	 9.99763e-001
823	 8.4200000000e+002	 9.99752e-001
824	 8.4300000000e+002	 9.99760e-001
825	 8.4400000000e+002	 9.99766e-001
826	 8.4500000000e+002	 9.99767e-001
827	 8.4600000000e+002	 9.99759e-001
828	 8.4700000000e+002	 9.99722e-001
829	 8.4800000000e+002	 9.99731e-001
830	 8.4900000000e+002	 9.99757e-001
831	 8.5000000000e+002	 9.99725e-001
832	 8.5100000000e+002	 9.99668e-001
833	 8.5200000000e+002	 9.99708e-001
834	 8.5300000000e+002	 9.99721e-001
835	 8.5400000000e+002	 9.99663e-001
836	 8.5500000000e+002	 9.99646e-001
837	 8.5600000000e+002	 9.99699e-001
838	 8.5700000000e+002	 9.99614e-001
839	 8.5800000000e+002	 9.99559e-001
840	 8.5900000000e+002	 9.99647e-001
841	 8.6000000000e+002	 9.99528e-001
842	 8.6100000000e+002	 9.99507e-001
843	 8.6200000000e+002	 9.99561e-001
844	 8.6300000000e+002	 9.99411e-001
845	 8.6400000000e+002	 9.99469e-001
846	 8.6500000000e+002	 9.99370e-001
847	 8.6600000000e+002	 9.99297e-001
848	 8.6700000000e+002	 9.99294e-001
849	 8.6800000000e+002	 9.99216e-001
850	 8.6900000000e+002	 9.99148e-001
851	 8.7000000000e+002	 9.99027e-001
852	 8.7100000000e+002	 9.98888e-001
853	 8.7200000000e+002	 9.98825e-001
854	 8.7300000000e+002	 9.98650e-001
855	 8.7400000000e+002	 9.98415e-001
856	 8.7500000000e+002	 9.98399e-001
857	 8.7600000000e+002	 9.97958e-001
858	 8.7700000000e+002	 9.97881e-001
859	 8.7800000000e+002	 9.97519e-001
860	 8.7900000000e+002	 9.97344e-001
861	 8.8000000000e+002	 9.96905e-001
862	 8.8100000000e+002	 9.96726e-001
863	 8.8200000000e+002	 9.96487e-001
864	 8.8300000000e+002	 9.96383e-001
865	 8.8400000000e+002	 9.96244e-001
866	 8.8500000000e+002	 9.96264e-001
867	 8.8600000000e+002	 9.96322e-001
868	 8.8700000000e+002	 9.96493e-001
869	 8.8800000000e+002	 9.96598e-001
870	 8.8900000000e+002	 9.96965e-001
871	 8.9000000000e+002	 9.97020e-001
872	 8.9100000000e+002	 9.97239e-001
873	 8.9200000000e+002	 9.97358e-001
874	 8.9300000000e+002	 9.97538e-001
875	 8.9400000000e+002	 9.97745e-001
876	 8.9500000000e+002	 9.97843e-001
877	 8.9600000000e+002	 9.97984e-001
878	 8.9700000000e+002	 9.98024e-001
879	 8.9800000000e+002	 9.98175e-001
880	 8.9900000000e+002	 9.98204e-001
881	 9.0000000000e+002	 9.98324e-001
882	 9.0100000000e+002	 9.98301e-001
883	 9.0200000000e+002	 9.98363e-001
884	 9.0300000000e+002	 9.98368e-001
885	 9.0400000000e+002	 9.98416e-001
886	 9.0500000000e+002	 9.98392e-001
887	 9.0600000000e+002	 9.98431e-001
888	 9.0700000000e+002	 9.98485e-001
889	 9.0800000000e+002	 9.98450e-001
890	 9.0900000000e+002	 9.98423e-001
891	 9.1000000000e+002	 9.98382e-001
892	 9.1100000000e+002	 9.98343e-001
893	 9.1200000000e+002	 9.98302e-001
894	 9.1300000000e+002	 9.98275e-001
895	 9.1400000000e+002	 9.98178e-001
896	 9.1500000000e+002	 9.98119e-001
897	 9.1600000000e+002	 9.98072e-001
898	 9.1700000000e+002	 9.97938e-001
899	 9.1800000000e+002	 9.97855e-001
900	 9.1900000000e+002	 9.97759e-001
901	 9.2000000000e+002	 9.97668e-001
902	 9.2100000000e+002	 9.97563e-001
903	 9.2200000000e+002	 9.97495e-001
904	 9.2300000000e+002	 9.97421e-001
905	 9.2400000000e+002	 9.97384e-001
906	 9.2500000000e+002	 9.97357e-001
907	 9.2600000000e+002	 9.97401e-001
908	 9.2700000000e+002	 9.97460e-001
909	 9.2800000000e+002	 9.97572e-001
910	 9.2900000000e+002	 9.97684e-001
911	 9.3000000000e+002	 9.97824e-001
912	 9.3100000000e+002	 9.97997e-001
913	 9.3200000000e+002	 9.98161e-001
914	 9.3300000000e+002	 9.98332e-001
915	 9.3400000000e+002	 9.98466e-001
916	 9.3500000000e+002	 9.98621e-001
917	 9.3600000000e+002	 9.98737e-001
918	 9.3700000000e+002	 9.98889e-001
919	 9.3800000000e+002	 9.98991e-001
920	 9.3900000000e+002	 9.99078e-001
921	 9.4000000000e+002	 9.99178e-001
922	 9.4100000000e+002	 9.99257e-001
923	 9.4200000000e+002	 9.99316e-001
924	 9.4300000000e+002	 9.99375e-001
925	 9.4400000000e+002	 9.99421e-001
926	 9.4500000000e+002	 9.99461e-001
927	 9.4600000000e+002	 9.99493e-001
928	 9.4700000000e+002	 9.99535e-001
929	 9.4800000000e+002	 9.99562e-001
930	 9.4900000000e+002	 9.99579e-001
931	 9.5000000000e+002	 9.99606e-001
932	 9.5100000000e+002	 9.99637e-001
933	 9.5200000000e+002	 9.99654e-001
934	 9.5300000000e+002	 9.99675e-001
935	 9.5400000000e+002	 9.99684e-001
936	 9.5500000000e+002	 9.99704e-001
937	 9.5600000000e+002	 9.99712e-001
938	 9.5700000000e+002	 9.99718e-001
939	 9.5800000000e+002	 9.99723e-001
940	 9.5900000000e+002	 9.99751e-001
941	 9.6000000000e+002	 9.99746e-001
942	 9.6100000000e+002	 9.99754e-001
943	 9.6200000000e+002	 9.99757e-001
944	 9.6300000000e+002	 9.99769e-001
945	 9.6400000000e+002	 9.99764e-001
946	 9.6500000000e+002	 9.99782e-001
947	 9.6600000000e+002	 9.99779e-001
948	 9.6700000000e+002	 9.99777e-001
949	 9.6800000000e+002	 9.99784e-001
950	 9.6900000000e+002	 9.99787e-001
951	 9.7000000000e+002	 9.99788e-001
952	 9.7100000000e+002	 9.99787e-001
953	 9.7200000000e+002	 9.99796e-001
954	 9.7300000000e+002	 9.99797e-001
955	 9.7400000000e+002	 9.99803e-001
956	 9.7500000000e+002	 9.99793e-001
957	 9.7600000000e+002	 9.99800e-001
958	 9.7700000000e+002	 9.99804e-001
959	 9.7800000000e+002	 9.99803e-001
960	 9.7900000000e+002	 9.99792e-001
961	 9.8000000000e+002	 9.99802e-001
962	 9.8100000000e+002	 9.99810e-001
963	 9.8200000000e+002	 9.99811e-001
964	 9.8300000000e+002	 9.99787e-001
965	 9.8400000000e+002	 9.99795e-001
966	 9.8500000000e+002	 9.99807e-001
967	 9.8600000000e+002	 9.99794e-001
968	 9.8700000000e+002	 9.99789e-001
969	 9.8800000000e+002	 9.99790e-001
970	 9.8900000000e+002	 9.99794e-001
971	 9.9000000000e+002	 9.99781e-001
972	 9.9100000000e+002	 9.99781e-001
973	 9.9200000000e+002	 9.99777e-001
974	 9.9300000000e+002	 9.99762e-001
975	 9.9400000000e+002	 9.99763e-001
976	 9.9500000000e+002	 9.99755e-001
977	 9.9600000000e+002	 9.99739e-001
978	 9.9700000000e+002	 9.99732e-001
979	 9.9800000000e+002	 9.99720e-001
980	 9.9900000000e+002	 9.99723e-001
981	 1.0000000000e+003	 9.99707e-001
982	 1.0010000000e+003	 9.99719e-001
983	 1.0020000000e+003	 9.99685e-001
984	 1.0030000000e+003	 9.99683e-001
985	 1.0040000000e+003	 9.99648e-001
986	 1.0050000000e+003	 9.99662e-001
987	 1.0060000000e+003	 9.99626e-001
988	 1.0070000000e+003	 9.99575e-001
989	 1.0080000000e+003	 9.99611e-001
990	 1.0090000000e+003	 9.99546e-001
991	 1.0100000000e+003	 9.99540e-001
992	 1.0110000000e+003	 9.99537e-001
993	 1.0120000000e+003	 9.99450e-001
994	 1.0130000000e+003	 9.99480e-001
995	 1.0140000000e+003	 9.99384e-001
996	 1.0150000000e+003	 9.99252e-001
997	 1.0160000000e+003	 9.99316e-001
998	 1.0170000000e+003	 9.99241e-001
999	 1.0180000000e+003	 9.99063e-001
1000	 1.0190000000e+003	 9.99107e-001
1001	 1.0200000000e+003	 9.99037e-001
1002	 1.0210000000e+003	 9.98769e-001
1003	 1.0220000000e+003	 9.98684e-001
1004	 1.0230000000e+003	 9.98655e-001
1005	 1.0240000000e+003	 9.98523e-001
1006	 1.0250000000e+003	 9.98153e-001
1007	 1.0260000000e+003	 9.97987e-001
1008	 1.0270000000e+003	 9.97967e-001
1009	 1.0280000000e+003	 9.97623e-001
1010	 1.0290000000e+003	 9.97347e-001
1011	 1.0300000000e+003	 9.97189e-001
1012	 1.0310000000e+003	 9.97056e-001
1013	 1.0320000000e+003	 9.96996e-001
1014	 1.0330000000e+003	 9.96790e-001
1015	 1.0340000000e+003	 9.96527e-001
1016	 1.0350000000e+003	 9.96532e-001
1017	 1.0360000000e+003	 9.96768e-001
1018	 1.0370000000e+003	 9.96954e-001
1019	 1.0380000000e+003	 9.97145e-001
1020	 1.0390000000e+003	 9.97410e-001
1021	 1.0400000000e+003	 9.97538e-001
1022	 1.0410000000e+003	 9.97789e-001
1023	 1.0420000000e+003	 9.98078e-001
1024	 1.0430000000e+003	 9.98310e-001
1025	 1.0440000000e+003	 9.98512e-001
1026	 1.0450000000e+003	 9.98591e-001
1027	 1.0460000000e+003	 9.98667e-001
1028	 1.0470000000e+003	 9.98717e-001
1029	 1.0480000000e+003	 9.98742e-001
1030	 1.0490000000e+003	 9.98740e-001
1031	 1.0500000000e+003	 9.98732e-001
1032	 1.0510000000e+003	 9.98784e-001
1033	 1.0520000000e+003	 9.98746e-001
1034	 1.0530000000e+003	 9.98774e-001
1035	 1.0540000000e+003	 9.98736e-001
1036	 1.0550000000e+003	 9.98720e-001
1037	 1.0560000000e+003	 9.98691e-001
1038	 1.0570000000e+003	 9.98699e-001
1039	 1.0580000000e+003	 9.98670e-001
1040	 1.0590000000e+003	 9.98669e-001
1041	 1.0600000000e+003	 9.98654e-001
1042	 1.0610000000e+003	 9.98624e-001
1043	 1.0620000000e+003	 9.98632e-001
1044	 1.0630000000e+003	 9.98611e-001
1045	 1.0640000000e+003	 9.98639e-001
1046	 1.0650000000e+003	 9.98619e-001
1047	 1.0660000000e+003	 9.98636e-001
1048	 1.0670000000e+003	 9.98660e-001
1049	 1.0680000000e+003	 9.98695e-001
1050	 1.0690000000e+003	 9.98743e-001
1051	 1.0700000000e+003	 9.98768e-001
1052	 1.0710000000e+003	 9.98829e-001
1053	 1.0720000000e+003	 9.98866e-001
1054	 1.0730000000e+003	 9.98922e-001
1055	 1.0740000000e+003	 9.99012e-001
1056	 1.0750000000e+003	 9.99077e-001
1057	 1.0760000000e+003	 9.99136e-001
1058	 1.0770000000e+003	 9.99184e-001
1059	 1.0780000000e+003	 9.99240e-001
1060	 1.0790000000e+003	 9.99284e-001
1061	 1.0800000000e+003	 9.99347e-001
1062	 1.0810000000e+003	 9.99396e-001
1063	 1.0820000000e+003	 9.99445e-001
1064	 1.0830000000e+003	 9.99465e-001
1065	 1.0840000000e+003	 9.99505e-001
1066	 1.0850000000e+003	 9.99540e-001
1067	 1.0860000000e+003	 9.99575e-001
1068	 1.0870000000e+003	 9.99589e-001
1069	 1.0880000000e+003	 9.99608e-001
1070	 1.0890000000e+003	 9.99635e-001
1071	 1.0900000000e+003	 9.99643e-001
1072	 1.0910000000e+003	 9.99646e-001
1073	 1.0920000000e+003	 9.99692e-001
1074	 1.0930000000e+003	 9.99711e-001
1075	 1.0940000000e+003	 9.99700e-001
1076	 1.0950000000e+003	 9.99712e-001
1077	 1.0960000000e+003	 9.99740e-001
1078	 1.0970000000e+003	 9.99740e-001
1079	 1.0980000000e+003	 9.99749e-001
1080	 1.0990000000e+003	 9.99770e-001
1081	 1.1000000000e+003	 9.99762e-001
1082	 1.1010000000e+003	 9.99776e-001
1083	 1.1020000000e+003	 9.99778e-001
1084	 1.1030000000e+003	 9.99783e-001
1085	 1.1040000000e+003	 9.99794e-001
1086	 1.1050000000e+003	 9.99791e-001
1087	 1.1060000000e+003	 9.99800e-001
1088	 1.1070000000e+003	 9.99799e-001
1089	 1.1080000000e+003	 9.99811e-001
1090	 1.1090000000e+003	 9.99823e-001
1091	 1.1100000000e+003	 9.99815e-001
1092	 1.1110000000e+003	 9.99819e-001
1093	 1.1120000000e+003	 9.99818e-001
1094	 1.1130000000e+003	 9.99832e-001
1095	 1.1140000000e+003	 9.99826e-001
1096	 1.1150000000e+003	 9.99831e-001
1097	 1.1160000000e+003	 9.99829e-001
1098	 1.1170000000e+003	 9.99836e-001
1099	 1.1180000000e+003	 9.99838e-001
1100	 1.1190000000e+003	 9.99844e-001
1101	 1.1200000000e+003	 9.99839e-001
1102	 1.1210000000e+003	 9.99845e-001
1103	 1.1220000000e+003	 9.99837e-001
1104	 1.1230000000e+003	 9.99843e-001
1105	 1.1240000000e+003	 9.99845e-001
1106	 1.1250000000e+003	 9.99846e-001
1107	 1.1260000000e+003	 9.99830e-001
1108	 1.1270000000e+003	 9.99834e-001
1109	 1.1280000000e+003	 9.99834e-001
1110	 1.1290000000e+003	 9.99799e-001
1111	 1.1300000000e+003	 9.99828e-001
1112	 1.1310000000e+003	 9.99818e-001
1113	 1.1320000000e+003	 9.99790e-001
1114	 1.1330000000e+003	 9.99828e-001
1115	 1.1340000000e+003	 9.99813e-001
1116	 1.1350000000e+003	 9.99816e-001
1117	 1.1360000000e+003	 9.99811e-001
1118	 1.1370000000e+003	 9.99811e-001
1119	 1.1380000000e+003	 9.99807e-001
1120	 1.1390000000e+003	 9.99808e-001
1121	 1.1400000000e+003	 9.99811e-001
1122	 1.1410000000e+003	 9.99799e-001
1123	 1.1420000000e+003	 9.99799e-001
1124	 1.1430000000e+003	 9.99794e-001
1125	 1.1440000000e+003	 9.99788e-001
1126	 1.1450000000e+003	 9.99783e-001
1127	 1.1460000000e+003	 9.99779e-001
1128	 1.1470000000e+003	 9.99769e-001
1129	 1.1480000000e+003	 9.99760e-001
1130	 1.1490000000e+003	 9.99760e-001
1131	 1.1500000000e+003	 9.99715e-001
1132	 1.1510000000e+003	 9.99727e-001
1133	 1.1520000000e+003	 9.99732e-001
1134	 1.1530000000e+003	 9.99713e-001
1135	 1.1540000000e+003	 9.99689e-001
1136	 1.1550000000e+003	 9.99697e-001
1137	 1.1560000000e+003	 9.99682e-001
1138	 1.1570000000e+003	 9.99658e-001
1139	 1.1580000000e+003	 9.99642e-001
1140	 1.1590000000e+003	 9.99596e-001
1141	 1.1600000000e+003	 9.99603e-001
1142	 1.1610000000e+003	 9.99585e-001
1143	 1.1620000000e+003	 9.99539e-001
1144	 1.1630000000e+003	 9.99515e-001
1145	 1.1640000000e+003	 9.99490e-001
1146	 1.1650000000e+003	 9.99442e-001
1147	 1.1660000000e+003	 9.99433e-001
1148	 1.1670000000e+003	 9.99384e-001
1149	 1.1680000000e+003	 9.99340e-001
1150	 1.1690000000e+003	 9.99335e-001
1151	 1.1700000000e+003	 9.99281e-001
1152	 1.1710000000e+003	 9.99246e-001
1153	 1.1720000000e+003	 9.99219e-001
1154	 1.1730000000e+003	 9.99164e-001
1155	 1.1740000000e+003	 9.99142e-001
1156	 1.1750000000e+003	 9.99128e-001
1157	 1.1760000000e+003	 9.99114e-001
1158	 1.1770000000e+003	 9.99097e-001
1159	 1.1780000000e+003	 9.99073e-001
1160	 1.1790000000e+003	 9.99060e-001
1161	 1.1800000000e+003	 9.99055e-001
1162	 1.1810000000e+003	 9.99043e-001
1163	 1.1820000000e+003	 9.99091e-001
1164	 1.1830000000e+003	 9.99067e-001
1165	 1.1840000000e+003	 9.99093e-001
1166	 1.1850000000e+003	 9.99092e-001
1167	 1.1860000000e+003	 9.99098e-001
1168	 1.1870000000e+003	 9.99099e-001
1169	 1.1880000000e+003	 9.99099e-001
1170	 1.1890000000e+003	 9.99122e-001
1171	 1.1900000000e+003	 9.99122e-001
1172	 1.1910000000e+003	 9.99111e-001
1173	 1.1920000000e+003	 9.99113e-001
1174	 1.1930000000e+003	 9.99146e-001
1175	 1.1940000000e+003	 9.99137e-001
1176	 1.1950000000e+003	 9.99127e-001
1177	 1.1960000000e+003	 9.99113e-001
1178	 1.1970000000e+003	 9.99134e-001
1179	 1.1980000000e+003	 9.99129e-001
1180	 1.1990000000e+003	 9.99135e-001
1181	 1.2000000000e+003	 9.99123e-001
1182	 1.2010000000e+003	 9.99131e-001
1183	 1.2020000000e+003	 9.99126e-001
1184	 1.2030000000e+003	 9.99120e-001
1185	 1.2040000000e+003	 9.99139e-001
1186	 1.2050000000e+003	 9.99138e-001
1187	 1.2060000000e+003	 9.99138e-001
1188	 1.2070000000e+003	 9.99154e-001
1189	 1.2080000000e+003	 9.99178e-001
1190	 1.2090000000e+003	 9.99183e-001
1191	 1.2100000000e+003	 9.99201e-001
1192	 1.2110000000e+003	 9.99218e-001
1193	 1.2120000000e+003	 9.99245e-001
1194	 1.2130000000e+003	 9.99264e-001
1195	 1.2140000000e+003	 9.99294e-001
1196	 1.2150000000e+003	 9.99312e-001
1197	 1.2160000000e+003	 9.99344e-001
1198	 1.2170000000e+003	 9.99362e-001
1199	 1.2180000000e+003	 9.99399e-001
1200	 1.2190000000e+003	 9.99420e-001
1201	 1.2200000000e+003	 9.99444e-001
1202	 1.2210000000e+003	 9.99471e-001
1203	 1.2220000000e+003	 9.99490e-001
1204	 1.2230000000e+003	 9.99508e-001
1205	 1.2240000000e+003	 9.99537e-001
1206	 1.2250000000e+003	 9.99547e-001
1207	 1.2260000000e+003	 9.99564e-001
1208	 1.2270000000e+003	 9.99588e-001
1209	 1.2280000000e+003	 9.99600e-001
1210	 1.2290000000e+003	 9.99617e-001
1211	 1.2300000000e+003	 9.99633e-001
1212	 1.2310000000e+003	 9.99642e-001
1213	 1.2320000000e+003	 9.99665e-001
1214	 1.2330000000e+003	 9.99665e-001
1215	 1.2340000000e+003	 9.99683e-001
1216	 1.2350000000e+003	 9.99690e-001
1217	 1.2360000000e+003	 9.99699e-001
1218	 1.2370000000e+003	 9.99707e-001
1219	 1.2380000000e+003	 9.99716e-001
1220	 1.2390000000e+003	 9.99728e-001
1221	 1.2400000000e+003	 9.99733e-001
1222	 1.2410000000e+003	 9.99739e-001
1223	 1.2420000000e+003	 9.99745e-001
1224	 1.2430000000e+003	 9.99758e-001
1225	 1.2440000000e+003	 9.99767e-001
1226	 1.2450000000e+003	 9.99774e-001
1227	 1.2460000000e+003	 9.99774e-001
1228	 1.2470000000e+003	 9.99788e-001
1229	 1.2480000000e+003	 9.99799e-001
1230	 1.2490000000e+003	 9.99805e-001
1231	 1.2500000000e+003	 9.99794e-001
1232	 1.2510000000e+003	 9.99807e-001
1233	 1.2520000000e+003	 9.99824e-001
1234	 1.2530000000e+003	 9.99835e-001
1235	 1.2540000000e+003	 9.99839e-001
1236	 1.2550000000e+003	 9.99836e-001
1237	 1.2560000000e+003	 9.99847e-001
1238	 1.2570000000e+003	 9.99852e-001
1239	 1.2580000000e+003	 9.99857e-001
1240	 1.2590000000e+003	 9.99851e-001
1241	 1.2600000000e+003	 9.99860e-001
1242	 1.2610000000e+003	 9.99866e-001
1243	 1.2620000000e+003	 9.99862e-001
1244	 1.2630000000e+003	 9.99861e-001
1245	 1.2640000000e+003	 9.99866e-001
1246	 1.2650000000e+003	 9.99864e-001
1247	 1.2660000000e+003	 9.99861e-001
1248	 1.2670000000e+003	 9.99867e-001
1249	 1.2680000000e+003	 9.99869e-001
1250	 1.2690000000e+003	 9.99871e-001
1251	 1.2700000000e+003	 9.99868e-001
1252	 1.2710000000e+003	 9.99869e-001
1253	 1.2720000000e+003	 9.99872e-001
1254	 1.2730000000e+003	 9.99879e-001
1255	 1.2740000000e+003	 9.99873e-001
1256	 1.2750000000e+003	 9.99867e-001
1257	 1.2760000000e+003	 9.99866e-001
1258	 1.2770000000e+003	 9.99868e-001
1259	 1.2780000000e+003	 9.99869e-001
1260	 1.2790000000e+003	 9.99869e-001
1261	 1.2800000000e+003	 9.99872e-001
1262	 1.2810000000e+003	 9.99863e-001
1263	 1.2820000000e+003	 9.99861e-001
1264	 1.2830000000e+003	 9.99867e-001
1265	 1.2840000000e+003	 9.99867e-001
1266	 1.2850000000e+003	 9.99869e-001
1267	 1.2860000000e+003	 9.99866e-001
1268	 1.2870000000e+003	 9.99862e-001
1269	 1.2880000000e+003	 9.99862e-001
1270	 1.2890000000e+003	 9.99852e-001
1271	 1.2900000000e+003	 9.99845e-001
1272	 1.2910000000e+003	 9.99835e-001
1273	 1.2920000000e+003	 9.99810e-001
1274	 1.2930000000e+003	 9.99791e-001
1275	 1.2940000000e+003	 9.99765e-001
1276	 1.2950000000e+003	 9.99739e-001
1277	 1.2960000000e+003	 9.99700e-001
1278	 1.2970000000e+003	 9.99654e-001
1279	 1.2980000000e+003	 9.99596e-001
1280	 1.2990000000e+003	 9.99519e-001
1281	 1.3000000000e+003	 9.99437e-001
1282	 1.3010000000e+003	 9.99363e-001
1283	 1.3020000000e+003	 9.99278e-001
1284	 1.3030000000e+003	 9.99197e-001
1285	 1.3040000000e+003	 9.99132e-001
1286	 1.3050000000e+003	 9.99057e-001
1287	 1.3060000000e+003	 9.98985e-001
1288	 1.3070000000e+003	 9.98913e-001
1289	 1.3080000000e+003	 9.98867e-001
1290	 1.3090000000e+003	 9.98869e-001
1291	 1.3100000000e+003	 9.98861e-001
1292	 1.3110000000e+003	 9.98881e-001
1293	 1.3120000000e+003	 9.98895e-001
1294	 1.3130000000e+003	 9.98938e-001
1295	 1.3140000000e+003	 9.99014e-001
1296	 1.3150000000e+003	 9.99080e-001
1297	 1.3160000000e+003	 9.99125e-001
1298	 1.3170000000e+003	 9.99172e-001
1299	 1.3180000000e+003	 9.99241e-001
1300	 1.3190000000e+003	 9.99314e-001
1301	 1.3200000000e+003	 9.99352e-001
1302	 1.3210000000e+003	 9.99371e-001
1303	 1.3220000000e+003	 9.99413e-001
1304	 1.3230000000e+003	 9.99460e-001
1305	 1.3240000000e+003	 9.99479e-001
1306	 1.3250000000e+003	 9.99485e-001
1307	 1.3260000000e+003	 9.99504e-001
1308	 1.3270000000e+003	 9.99506e-001
1309	 1.3280000000e+003	 9.99498e-001
1310	 1.3290000000e+003	 9.99506e-001
1311	 1.3300000000e+003	 9.99503e-001
1312	 1.3310000000e+003	 9.99499e-001
1313	 1.3320000000e+003	 9.99504e-001
1314	 1.3330000000e+003	 9.99497e-001
1315	 1.3340000000e+003	 9.99514e-001
1316	 1.3350000000e+003	 9.99515e-001
1317	 1.3360000000e+003	 9.99518e-001
1318	 1.3370000000e+003	 9.99519e-001
1319	 1.3380000000e+003	 9.99505e-001
1320	 1.3390000000e+003	 9.99496e-001
1321	 1.3400000000e+003	 9.99505e-001
1322	 1.3410000000e+003	 9.99505e-001
1323	 1.3420000000e+003	 9.99496e-001
1324	 1.3430000000e+003	 9.99507e-001
1325	 1.3440000000e+003	 9.99510e-001
1326	 1.3450000000e+003	 9.99506e-001
1327	 1.3460000000e+003	 9.99515e-001
1328	 1.3470000000e+003	 9.99516e-001
1329	 1.3480000000e+003	 9.99520e-001
1330	 1.3490000000e+003	 9.99520e-001
1331	 1.3500000000e+003	 9.99531e-001
1332	 1.3510000000e+003	 9.99542e-001
1333	 1.3520000000e+003	 9.99547e-001
1334	 1.3530000000e+003	 9.99561e-001
1335	 1.3540000000e+003	 9.99571e-001
1336	 1.3550000000e+003	 9.99575e-001
1337	 1.3560000000e+003	 9.99588e-001
1338	 1.3570000000e+003	 9.99606e-001
1339	 1.3580000000e+003	 9.99616e-001
1340	 1.3590000000e+003	 9.99629e-001
1341	 1.3600000000e+003	 9.99645e-001
1342	 1.3610000000e+003	 9.99654e-001
1343	 1.3620000000e+003	 9.99670e-001
1344	 1.3630000000e+003	 9.99685e-001
1345	 1.3640000000e+003	 9.99699e-001
1346	 1.3650000000e+003	 9.99714e-001
1347	 1.3660000000e+003	 9.99727e-001
1348	 1.3670000000e+003	 9.99743e-001
1349	 1.3680000000e+003	 9.99751e-001
1350	 1.3690000000e+003	 9.99765e-001
1351	 1.3700000000e+003	 9.99778e-001
1352	 1.3710000000e+003	 9.99787e-001
1353	 1.3720000000e+003	 9.99798e-001
1354	 1.3730000000e+003	 9.99808e-001
1355	 1.3740000000e+003	 9.99818e-001
1356	 1.3750000000e+003	 9.99831e-001
1357	 1.3760000000e+003	 9.99840e-001
1358	 1.3770000000e+003	 9.99848e-001
1359	 1.3780000000e+003	 9.99853e-001
1360	 1.3790000000e+003	 9.99859e-001
1361	 1.3800000000e+003	 9.99867e-001
1362	 1.3810000000e+003	 9.99875e-001
1363	 1.3820000000e+003	 9.99880e-001
1364	 1.3830000000e+003	 9.99888e-001
1365	 1.3840000000e+003	 9.99891e-001
1366	 1.3850000000e+003	 9.99892e-001
1367	 1.3860000000e+003	 9.99897e-001
1368	 1.3870000000e+003	 9.99899e-001
1369	 1.3880000000e+003	 9.99904e-001
1370	 1.3890000000e+003	 9.99908e-001
1371	 1.3900000000e+003	 9.99909e-001
1372	 1.3910000000e+003	 9.99914e-001
1373	 1.3920000000e+003	 9.99913e-001
1374	 1.3930000000e+003	 9.99914e-001
1375	 1.3940000000e+003	 9.99921e-001
1376	 1.3950000000e+003	 9.99917e-001
1377	 1.3960000000e+003	 9.99919e-001
1378	 1.3970000000e+003	 9.99920e-001
1379	 1.3980000000e+003	 9.99924e-001
1380	 1.3990000000e+003	 9.99919e-001
1381	 1.4000000000e+003	 9.99922e-001
1382	 1.4010000000e+003	 9.99924e-001
1383	 1.4020000000e+003	 9.99919e-001
1384	 1.4030000000e+003	 9.99921e-001
1385	 1.4040000000e+003	 9.99926e-001
1386	 1.4050000000e+003	 9.99921e-001
1387	 1.4060000000e+003	 9.99921e-001
1388	 1.4070000000e+003	 9.99921e-001
1389	 1.4080000000e+003	 9.99920e-001
1390	 1.4090000000e+003	 9.99919e-001
1391	 1.4100000000e+003	 9.99920e-001
1392	 1.4110000000e+003	 9.99920e-001
1393	 1.4120000000e+003	 9.99921e-001
1394	 1.4130000000e+003	 9.99923e-001
1395	 1.4140000000e+003	 9.99919e-001
1396	 1.4150000000e+003	 9.99922e-001
1397	 1.4160000000e+003	 9.99919e-001
1398	 1.4170000000e+003	 9.99918e-001
1399	 1.4180000000e+003	 9.99919e-001
1400	 1.4190000000e+003	 9.99917e-001
1401	 1.4200000000e+003	 9.99921e-001
1402	 1.4210000000e+003	 9.99919e-001
1403	 1.4220000000e+003	 9.99917e-001
1404	 1.4230000000e+003	 9.99919e-001
1405	 1.4240000000e+003	 9.99919e-001
1406	 1.4250000000e+003	 9.99919e-001
1407	 1.4260000000e+003	 9.99920e-001
1408	 1.4270000000e+003	 9.99918e-001
1409	 1.4280000000e+003	 9.99915e-001
1410	 1.4290000000e+003	 9.99914e-001
1411	 1.4300000000e+003	 9.99915e-001
1412	 1.4310000000e+003	 9.99915e-001
1413	 1.4320000000e+003	 9.99914e-001
1414	 1.4330000000e+003	 9.99915e-001
1415	 1.4340000000e+003	 9.99909e-001
1416	 1.4350000000e+003	 9.99912e-001
1417	 1.4360000000e+003	 9.99911e-001
1418	 1.4370000000e+003	 9.99911e-001
1419	 1.4380000000e+003	 9.99908e-001
1420	 1.4390000000e+003	 9.99908e-001
1421	 1.4400000000e+003	 9.99906e-001
1422	 1.4410000000e+003	 9.99908e-001
1423	 1.4420000000e+003	 9.99903e-001
1424	 1.4430000000e+003	 9.99901e-001
1425	 1.4440000000e+003	 9.99903e-001
1426	 1.4450000000e+003	 9.99896e-001
1427	 1.4460000000e+003	 9.99896e-001
1428	 1.4470000000e+003	 9.99893e-001
1429	 1.4480000000e+003	 9.99891e-001
1430	 1.4490000000e+003	 9.99876e-001
1431	 1.4500000000e+003	 9.99862e-001
1432	 1.4510000000e+003	 9.99879e-001
1433	 1.4520000000e+003	 9.99872e-001
1434	 1.4530000000e+003	 9.99875e-001
1435	 1.4540000000e+003	 9.99865e-001
1436	 1.4550000000e+003	 9.99857e-001
1437	 1.4560000000e+003	 9.99849e-001
1438	 1.4570000000e+003	 9.99851e-001
1439	 1.4580000000e+003	 9.99853e-001
1440	 1.4590000000e+003	 9.99836e-001
1441	 1.4600000000e+003	 9.99831e-001
1442	 1.4610000000e+003	 9.99824e-001
1443	 1.4620000000e+003	 9.99831e-001
1444	 1.4630000000e+003	 9.99822e-001
1445	 1.4640000000e+003	 9.99807e-001
1446	 1.4650000000e+003	 9.99798e-001
1447	 1.4660000000e+003	 9.99815e-001
1448	 1.4670000000e+003	 9.99808e-001
1449	 1.4680000000e+003	 9.99779e-001
1450	 1.4690000000e+003	 9.99769e-001
1451	 1.4700000000e+003	 9.99805e-001
1452	 1.4710000000e+003	 9.99786e-001
1453	 1.4720000000e+003	 9.99740e-001
1454	 1.4730000000e+003	 9.99766e-001
1455	 1.4740000000e+003	 9.99804e-001
1456	 1.4750000000e+003	 9.99753e-001
1457	 1.4760000000e+003	 9.99724e-001
1458	 1.4770000000e+003	 9.99793e-001
1459	 1.4780000000e+003	 9.99773e-001
1460	 1.4790000000e+003	 9.99707e-001
1461	 1.4800000000e+003	 9.99784e-001
1462	 1.4810000000e+003	 9.99789e-001
1463	 1.4820000000e+003	 9.99694e-001
1464	 1.4830000000e+003	 9.99795e-001
1465	 1.4840000000e+003	 9.99794e-001
1466	 1.4850000000e+003	 9.99696e-001
1467	 1.4860000000e+003	 9.99820e-001
1468	 1.4870000000e+003	 9.99766e-001
1469	 1.4880000000e+003	 9.99708e-001
1470	 1.4890000000e+003	 9.99843e-001
1471	 1.4900000000e+003	 9.99714e-001
1472	 1.4910000000e+003	 9.99772e-001
1473	 1.4920000000e+003	 9.99829e-001
1474	 1.4930000000e+003	 9.99692e-001
1475	 1.4940000000e+003	 9.99855e-001
1476	 1.4950000000e+003	 9.99726e-001
1477	 1.4960000000e+003	 9.99783e-001
1478	 1.4970000000e+003	 9.99824e-001
1479	 1.4980000000e+003	 9.99707e-001
1480	 1.4990000000e+003	 9.99869e-001
1481	 1.5000000000e+003	 9.99676e-001
1482	 1.5010000000e+003	 9.99863e-001
1483	 1.5020000000e+003	 9.99726e-001
1484	 1.5030000000e+003	 9.99832e-001
1485	 1.5040000000e+003	 9.99786e-001
1486	 1.5050000000e+003	 9.99805e-001
1487	 1.5060000000e+003	 9.99835e-001
1488	 1.5070000000e+003	 9.99774e-001
1489	 1.5080000000e+003	 9.99853e-001
1490	 1.5090000000e+003	 9.99764e-001
1491	 1.5100000000e+003	 9.99880e-001
1492	 1.5110000000e+003	 9.99777e-001
1493	 1.5120000000e+003	 9.99881e-001
1494	 1.5130000000e+003	 9.99796e-001
1495	 1.5140000000e+003	 9.99877e-001
1496	 1.5150000000e+003	 9.99834e-001
1497	 1.5160000000e+003	 9.99869e-001
1498	 1.5170000000e+003	 9.99883e-001
1499	 1.5180000000e+003	 9.99845e-001
1500	 1.5190000000e+003	 9.99917e-001
1501	 1.5200000000e+003	 9.99798e-001
1502	 1.5210000000e+003	 9.99931e-001
1503	 1.5220000000e+003	 9.99787e-001
1504	 1.5230000000e+003	 9.99928e-001
1505	 1.5240000000e+003	 9.99875e-001
1506	 1.5250000000e+003	 9.99908e-001
1507	 1.5260000000e+003	 9.99929e-001
1508	 1.5270000000e+003	 9.99827e-001
1509	 1.5280000000e+003	 9.99941e-001
1510	 1.5290000000e+003	 9.99879e-001
1511	 1.5300000000e+003	 9.99925e-001
1512	 1.5310000000e+003	 9.99943e-001
1513	 1.5320000000e+003	 9.99831e-001
1514	 1.5330000000e+003	 9.99946e-001
1515	 1.5340000000e+003	 9.99932e-001
1516	 1.5350000000e+003	 9.99893e-001
1517	 1.5360000000e+003	 9.99951e-001
1518	 1.5370000000e+003	 9.99913e-001
1519	 1.5380000000e+003	 9.99921e-001
1520	 1.5390000000e+003	 9.99951e-001
1521	 1.5400000000e+003	 9.99918e-001
1522	 1.5410000000e+003	 9.99937e-001
1523	 1.5420000000e+003	 9.99957e-001
1524	 1.5430000000e+003	 9.99929e-001
1525	 1.5440000000e+003	 9.99921e-001
1526	 1.5450000000e+003	 9.99955e-001
1527	 1.5460000000e+003	 9.99947e-001
1528	 1.5470000000e+003	 9.99864e-001
1529	 1.5480000000e+003	 9.99953e-001
1530	 1.5490000000e+003	 9.99934e-001
1531	 1.5500000000e+003	 9.99828e-001
1532	 1.5510000000e+003	 9.99925e-001
1533	 1.5520000000e+003	 9.99955e-001
1534	 1.5530000000e+003	 9.99955e-001
1535	 1.5540000000e+003	 9.99855e-001
1536	 1.5550000000e+003	 9.99943e-001
1537	 1.5560000000e+003	 9.99958e-001
1538	 1.5570000000e+003	 9.99955e-001
1539	 1.5580000000e+003	 9.99882e-001
1540	 1.5590000000e+003	 9.99924e-001
1541	 1.5600000000e+003	 9.99958e-001
1542	 1.5610000000e+003	 9.99959e-001
1543	 1.5620000000e+003	 9.99940e-001
1544	 1.5630000000e+003	 9.99778e-001
1545	 1.5640000000e+003	 9.99935e-001
1546	 1.5650000000e+003	 9.99953e-001
1547	 1.5660000000e+003	 9.99952e-001
1548	 1.5670000000e+003	 9.99933e-001
1549	 1.5680000000e+003	 9.99749e-001
1550	 1.5690000000e+003	 9.99856e-001
1551	 1.5700000000e+003	 9.99930e-001
1552	 1.5710000000e+003	 9.99941e-001
1553	 1.5720000000e+003	 9.99935e-001
1554	 1.5730000000e+003	 9.99901e-001
1555	 1.5740000000e+003	 9.99692e-001
1556	 1.5750000000e+003	 9.99469e-001
1557	 1.5760000000e+003	 9.99844e-001
1558	 1.5770000000e+003	 9.99909e-001
1559	 1.5780000000e+003	 9.99924e-001
1560	 1.5790000000e+003	 9.99921e-001
1561	 1.5800000000e+003	 9.99905e-001
1562	 1.5810000000e+003	 9.99857e-001
1563	 1.5820000000e+003	 9.99696e-001
1564	 1.5830000000e+003	 9.98750e-001
1565	 1.5840000000e+003	 9.98612e-001
1566	 1.5850000000e+003	 9.99639e-001
1567	 1.5860000000e+003	 9.99820e-001
1568	 1.5870000000e+003	 9.99875e-001
1569	 1.5880000000e+003	 9.99898e-001
1570	 1.5890000000e+003	 9.99907e-001
1571	 1.5900000000e+003	 9.99914e-001
1572	 1.5910000000e+003	 9.99914e-001
1573	 1.5920000000e+003	 9.99909e-001
1574	 1.5930000000e+003	 9.99911e-001
1575	 1.5940000000e+003	 9.99910e-001
1576	 1.5950000000e+003	 9.99902e-001
1577	 1.5960000000e+003	 9.99889e-001
1578	 1.5970000000e+003	 9.99878e-001
1579	 1.5980000000e+003	 9.99861e-001
1580	 1.5990000000e+003	 9.99843e-001
1581	 1.6000000000e+003	 9.99814e-001
1582	 1.6010000000e+003	 9.99796e-001
1583	 1.6020000000e+003	 9.99725e-001
1584	 1.6030000000e+003	 9.99613e-001
1585	 1.6040000000e+003	 9.99505e-001
1586	 1.6050000000e+003	 9.99398e-001
1587	 1.6060000000e+003	 9.99221e-001
1588	 1.6070000000e+003	 9.98889e-001
1589	 1.6080000000e+003	 9.98531e-001
1590	 1.6090000000e+003	 9.98023e-001
1591	 1.6100000000e+003	 9.97372e-001
1592	 1.6110000000e+003	 9.96721e-001
1593	 1.6120000000e+003	 9.95485e-001
1594	 1.6130000000e+003	 9.93908e-001
1595	 1.6140000000e+003	 9.92379e-001
1596	 1.6150000000e+003	 9.89290e-001
1597	 1.6160000000e+003	 9.87543e-001
1598	 1.6170000000e+003	 9.85125e-001
1599	 1.6180000000e+003	 9.79823e-001
1600	 1.6190000000e+003	 9.71487e-001
1601	 1.6200000000e+003	 9.58335e-001
TagsBegin:	 	 
OverLoad:	 	False
AverageNumber: []	 	 8.80000e+001
OverLoadRatio: []	 	 1.19209e-007
TagsEnd:	 	 
TagScalesBegin:	 	 
TagScalesEnd:	 	 
