Header Size:	 79	 	 
Pulse Version:	 80	 	 
Running Pulse Version:	PULSE LabShop Fast Track Version 18.1.1.9 - 2014-01-16	 	 
Decimal Symbol:	.	 	 
Date Format:	M/d/yyyy	 	 
Time Format:	HH:mm:ss:mmm	 	 
Data Type:	Complex	 	 
Slice:	False	 	 
Z-Axis type:	Linear	 	 
Z-Axis size:	1	 	 
Z-Axis unit:	 	 	 
Z-Axis first value:	 0.0000000000e+000	 	 
Z-Axis delta:	 1.0000000000e+000	 	 
X-Axis type:	Linear	 	 
X-Axis size:	1601	 	 
X-Axis unit:	Hz	 	 
X-Axis first value:	 2.0000000000e+001	 	 
X-Axis delta:	 1.0000000000e+000	 	 
	 	 	 
AmplitudeUnit:	Pa/Pa	 	 
Analyzer:	FFT_Spectrum_Averaging	 	 
AnalyzerName:	FFT Analyzer	 	 
	 	 	 
	 	 	 
Bipolar:	True	 	 
CenterFrequency:	 8.2000000000e+002	 	 
	 	 	 
	 	 	 
	 	 	 
	 	 	 
dBReference:	 1.0000000000e+000	 	 
	 	 	 
	 	 	 
	 	 	 
Domain:	1	 	 
Function:	Frequency Response	 	 
	 	 	 
InputRange:	-2.0000000000e+002	 	 
	 	 	 
	 	 	 
MultiBufferName:	Input	 	 
NBW:	 1.5000000000e+000	 	 
	 	 	 
OverlapFailed:	False	 	 
Overrun:	False	 	 
Power:	False	 	 
	 	 	 
Ratio:	True	 	 
RecordLength:	 1.0000000000e+000	 	 
ReducedSize:	True	 	 
Ref_Signal:	p	 	 
	 	 	 
	 	 	 
RefSignalUnit:	Pa	 	 
	 	 	 
	 	 	 
Signal:	p_rad	 	 
	 	 	 
SignalUnit:	Pa	 	 
	 	 	 
	 	 	 
	 	 	 
Title:	Transfunction (p_rad,p)	 	 
Title1:	Working : Input : Input : FFT Analyzer	 	 
	 	 	 
	 	 	 
	 	 	 
ZoomOn:	True	 	 
	 	 	 
TemplateName:	Working	 	 
MeasurementName:	Input	 	 
MeasurementSlice:	False	 	 
	 	 	 
	 	 	 
	 	 	 
EnvelopeOn:	False	 	 
	 	 	 
	 	 	 
	 	 	 
Z-index:	 	1	 
Date:	 	5/25/2022	 
Time:	 	17:58:18:124	 
Relative time:	 	 0.00000e+000	 
Z-axis:	 	 0.0000000000e+000	 
1	 2.0000000000e+001	 5.05565e-004	-6.09227e-006
2	 2.1000000000e+001	 4.49437e-004	 5.40840e-005
3	 2.2000000000e+001	 5.77495e-004	 7.45861e-005
4	 2.3000000000e+001	 8.32201e-004	 3.75796e-004
5	 2.4000000000e+001	 8.01020e-004	 1.59914e-004
6	 2.5000000000e+001	 4.59983e-004	 5.99188e-005
7	 2.6000000000e+001	 6.60960e-004	 2.55459e-006
8	 2.7000000000e+001	 4.97936e-004	-1.25037e-004
9	 2.8000000000e+001	 3.17653e-004	-2.33366e-004
10	 2.9000000000e+001	 5.77102e-004	-1.14852e-004
11	 3.0000000000e+001	 3.01870e-004	-7.29382e-005
12	 3.1000000000e+001	 5.44516e-004	-4.27961e-004
13	 3.2000000000e+001	 6.45323e-004	-3.23846e-004
14	 3.3000000000e+001	 6.75286e-004	-1.62974e-004
15	 3.4000000000e+001	 4.90814e-004	-1.70457e-004
16	 3.5000000000e+001	 6.18898e-004	-1.72695e-004
17	 3.6000000000e+001	 6.72690e-004	-2.49407e-004
18	 3.7000000000e+001	 5.67552e-004	-2.59817e-004
19	 3.8000000000e+001	 6.15888e-004	-2.98573e-004
20	 3.9000000000e+001	 6.60949e-004	-3.34102e-004
21	 4.0000000000e+001	 6.57909e-004	-3.59643e-004
22	 4.1000000000e+001	 6.37869e-004	-3.34570e-004
23	 4.2000000000e+001	 6.52877e-004	-2.98479e-004
24	 4.3000000000e+001	 6.31758e-004	-2.98234e-004
25	 4.4000000000e+001	 6.13252e-004	-2.99720e-004
26	 4.5000000000e+001	 6.36911e-004	-3.01701e-004
27	 4.6000000000e+001	 6.70012e-004	-3.06098e-004
28	 4.7000000000e+001	 6.91244e-004	-3.00594e-004
29	 4.8000000000e+001	 7.07243e-004	-3.12356e-004
30	 4.9000000000e+001	 6.24088e-004	-3.56800e-004
31	 5.0000000000e+001	 3.46079e-004	-5.01124e-004
32	 5.1000000000e+001	 7.00301e-004	-4.34468e-004
33	 5.2000000000e+001	 8.45556e-004	-4.51274e-004
34	 5.3000000000e+001	 8.51799e-004	-5.10962e-004
35	 5.4000000000e+001	 8.49357e-004	-5.74820e-004
36	 5.5000000000e+001	 8.52486e-004	-6.29329e-004
37	 5.6000000000e+001	 8.40521e-004	-6.88841e-004
38	 5.7000000000e+001	 8.21908e-004	-7.41478e-004
39	 5.8000000000e+001	 7.95590e-004	-7.94234e-004
40	 5.9000000000e+001	 7.70285e-004	-8.49451e-004
41	 6.0000000000e+001	 7.32441e-004	-9.01202e-004
42	 6.1000000000e+001	 6.85360e-004	-9.39630e-004
43	 6.2000000000e+001	 6.19023e-004	-9.67569e-004
44	 6.3000000000e+001	 5.86771e-004	-9.65386e-004
45	 6.4000000000e+001	 5.67916e-004	-9.70386e-004
46	 6.5000000000e+001	 5.39180e-004	-9.80856e-004
47	 6.6000000000e+001	 5.17299e-004	-9.98709e-004
48	 6.7000000000e+001	 5.02381e-004	-1.01897e-003
49	 6.8000000000e+001	 4.81054e-004	-1.03762e-003
50	 6.9000000000e+001	 4.58684e-004	-1.05717e-003
51	 7.0000000000e+001	 4.35461e-004	-1.07690e-003
52	 7.1000000000e+001	 4.18388e-004	-1.09087e-003
53	 7.2000000000e+001	 4.02109e-004	-1.11741e-003
54	 7.3000000000e+001	 3.84757e-004	-1.14732e-003
55	 7.4000000000e+001	 3.60309e-004	-1.17462e-003
56	 7.5000000000e+001	 3.25356e-004	-1.20688e-003
57	 7.6000000000e+001	 2.74606e-004	-1.23806e-003
58	 7.7000000000e+001	 2.36811e-004	-1.25607e-003
59	 7.8000000000e+001	 2.06842e-004	-1.27485e-003
60	 7.9000000000e+001	 1.59156e-004	-1.27994e-003
61	 8.0000000000e+001	 1.13256e-004	-1.28829e-003
62	 8.1000000000e+001	 7.16554e-005	-1.27758e-003
63	 8.2000000000e+001	 4.39550e-005	-1.27313e-003
64	 8.3000000000e+001	 7.82732e-006	-1.27534e-003
65	 8.4000000000e+001	-2.35469e-005	-1.27897e-003
66	 8.5000000000e+001	-4.74521e-005	-1.28428e-003
67	 8.6000000000e+001	-9.41943e-005	-1.26830e-003
68	 8.7000000000e+001	-1.17936e-004	-1.25207e-003
69	 8.8000000000e+001	-1.30584e-004	-1.23153e-003
70	 8.9000000000e+001	-1.77227e-004	-1.23093e-003
71	 9.0000000000e+001	-1.79570e-004	-1.24545e-003
72	 9.1000000000e+001	-1.59260e-004	-1.24857e-003
73	 9.2000000000e+001	-1.72992e-004	-1.23288e-003
74	 9.3000000000e+001	-1.89088e-004	-1.23210e-003
75	 9.4000000000e+001	-1.95321e-004	-1.24059e-003
76	 9.5000000000e+001	-1.90777e-004	-1.24162e-003
77	 9.6000000000e+001	-1.92860e-004	-1.26708e-003
78	 9.7000000000e+001	-1.95678e-004	-1.26618e-003
79	 9.8000000000e+001	-1.86674e-004	-1.28977e-003
80	 9.9000000000e+001	-1.79002e-004	-1.33178e-003
81	 1.0000000000e+002	-2.07363e-004	-1.36161e-003
82	 1.0100000000e+002	-2.11286e-004	-1.37169e-003
83	 1.0200000000e+002	-1.88072e-004	-1.40001e-003
84	 1.0300000000e+002	-1.94043e-004	-1.46288e-003
85	 1.0400000000e+002	-2.31619e-004	-1.51374e-003
86	 1.0500000000e+002	-2.15140e-004	-1.54309e-003
87	 1.0600000000e+002	-2.61346e-004	-1.62484e-003
88	 1.0700000000e+002	-2.88602e-004	-1.70289e-003
89	 1.0800000000e+002	-3.40471e-004	-1.76164e-003
90	 1.0900000000e+002	-3.95753e-004	-1.80432e-003
91	 1.1000000000e+002	-4.40556e-004	-1.87127e-003
92	 1.1100000000e+002	-4.87287e-004	-1.91500e-003
93	 1.1200000000e+002	-5.20347e-004	-2.01023e-003
94	 1.1300000000e+002	-5.48505e-004	-2.09054e-003
95	 1.1400000000e+002	-6.15209e-004	-2.15344e-003
96	 1.1500000000e+002	-6.67433e-004	-2.18946e-003
97	 1.1600000000e+002	-7.58629e-004	-2.26641e-003
98	 1.1700000000e+002	-8.24694e-004	-2.34513e-003
99	 1.1800000000e+002	-9.12154e-004	-2.42834e-003
100	 1.1900000000e+002	-9.88016e-004	-2.47575e-003
101	 1.2000000000e+002	-1.05619e-003	-2.53361e-003
102	 1.2100000000e+002	-1.11751e-003	-2.63823e-003
103	 1.2200000000e+002	-1.20425e-003	-2.76447e-003
104	 1.2300000000e+002	-1.28957e-003	-2.86680e-003
105	 1.2400000000e+002	-1.38099e-003	-3.01113e-003
106	 1.2500000000e+002	-1.52564e-003	-3.21134e-003
107	 1.2600000000e+002	-1.65625e-003	-3.34091e-003
108	 1.2700000000e+002	-1.83325e-003	-3.52604e-003
109	 1.2800000000e+002	-2.02576e-003	-3.71653e-003
110	 1.2900000000e+002	-2.19218e-003	-3.97663e-003
111	 1.3000000000e+002	-2.40392e-003	-4.24583e-003
112	 1.3100000000e+002	-2.71027e-003	-4.55876e-003
113	 1.3200000000e+002	-3.07156e-003	-4.86737e-003
114	 1.3300000000e+002	-3.45220e-003	-5.15874e-003
115	 1.3400000000e+002	-4.02849e-003	-5.71018e-003
116	 1.3500000000e+002	-4.53331e-003	-6.09615e-003
117	 1.3600000000e+002	-5.37788e-003	-6.65033e-003
118	 1.3700000000e+002	-6.36768e-003	-7.26953e-003
119	 1.3800000000e+002	-7.52626e-003	-7.84876e-003
120	 1.3900000000e+002	-9.28033e-003	-8.51728e-003
121	 1.4000000000e+002	-1.17465e-002	-9.35005e-003
122	 1.4100000000e+002	-1.48760e-002	-9.86569e-003
123	 1.4200000000e+002	-1.91499e-002	-9.97177e-003
124	 1.4300000000e+002	-2.60637e-002	-7.95178e-003
125	 1.4400000000e+002	-3.47239e-002	 2.62467e-004
126	 1.4500000000e+002	-3.68714e-002	 1.54106e-002
127	 1.4600000000e+002	-2.39278e-002	 3.15619e-002
128	 1.4700000000e+002	-8.99244e-003	 3.27754e-002
129	 1.4800000000e+002	-4.40761e-004	 2.78146e-002
130	 1.4900000000e+002	 3.74605e-003	 2.15397e-002
131	 1.5000000000e+002	 6.35540e-003	 1.46301e-002
132	 1.5100000000e+002	 5.72217e-003	 1.46417e-002
133	 1.5200000000e+002	 5.62968e-003	 1.30928e-002
134	 1.5300000000e+002	 5.54417e-003	 1.13203e-002
135	 1.5400000000e+002	 5.33123e-003	 1.00801e-002
136	 1.5500000000e+002	 5.25828e-003	 8.88084e-003
137	 1.5600000000e+002	 5.17966e-003	 7.99770e-003
138	 1.5700000000e+002	 4.99611e-003	 7.24599e-003
139	 1.5800000000e+002	 4.86120e-003	 6.70957e-003
140	 1.5900000000e+002	 4.70752e-003	 6.23391e-003
141	 1.6000000000e+002	 4.56928e-003	 5.81395e-003
142	 1.6100000000e+002	 4.49849e-003	 5.48465e-003
143	 1.6200000000e+002	 4.38469e-003	 5.15715e-003
144	 1.6300000000e+002	 4.30535e-003	 4.90962e-003
145	 1.6400000000e+002	 4.25402e-003	 4.68712e-003
146	 1.6500000000e+002	 4.24151e-003	 4.44775e-003
147	 1.6600000000e+002	 4.23449e-003	 4.28165e-003
148	 1.6700000000e+002	 4.20474e-003	 4.08048e-003
149	 1.6800000000e+002	 4.21305e-003	 3.90960e-003
150	 1.6900000000e+002	 4.22973e-003	 3.75399e-003
151	 1.7000000000e+002	 4.23909e-003	 3.54203e-003
152	 1.7100000000e+002	 4.27094e-003	 3.37534e-003
153	 1.7200000000e+002	 4.30608e-003	 3.19799e-003
154	 1.7300000000e+002	 4.32258e-003	 3.05200e-003
155	 1.7400000000e+002	 4.34110e-003	 2.89158e-003
156	 1.7500000000e+002	 4.34886e-003	 2.71396e-003
157	 1.7600000000e+002	 4.36435e-003	 2.57605e-003
158	 1.7700000000e+002	 4.38977e-003	 2.43049e-003
159	 1.7800000000e+002	 4.38174e-003	 2.25747e-003
160	 1.7900000000e+002	 4.39569e-003	 2.11431e-003
161	 1.8000000000e+002	 4.41226e-003	 1.97045e-003
162	 1.8100000000e+002	 4.43066e-003	 1.81590e-003
163	 1.8200000000e+002	 4.43238e-003	 1.68598e-003
164	 1.8300000000e+002	 4.44992e-003	 1.51135e-003
165	 1.8400000000e+002	 4.45539e-003	 1.37974e-003
166	 1.8500000000e+002	 4.46033e-003	 1.24968e-003
167	 1.8600000000e+002	 4.43998e-003	 1.07707e-003
168	 1.8700000000e+002	 4.43148e-003	 9.22401e-004
169	 1.8800000000e+002	 4.40293e-003	 7.87808e-004
170	 1.8900000000e+002	 4.37015e-003	 6.18347e-004
171	 1.9000000000e+002	 4.33491e-003	 4.82124e-004
172	 1.9100000000e+002	 4.28952e-003	 3.61222e-004
173	 1.9200000000e+002	 4.23575e-003	 2.45799e-004
174	 1.9300000000e+002	 4.18658e-003	 1.34081e-004
175	 1.9400000000e+002	 4.14657e-003	 2.30379e-005
176	 1.9500000000e+002	 4.09813e-003	-8.81747e-005
177	 1.9600000000e+002	 4.04962e-003	-1.73802e-004
178	 1.9700000000e+002	 4.01253e-003	-2.59356e-004
179	 1.9800000000e+002	 3.97348e-003	-3.53489e-004
180	 1.9900000000e+002	 3.92569e-003	-4.52673e-004
181	 2.0000000000e+002	 3.88935e-003	-5.66913e-004
182	 2.0100000000e+002	 3.86681e-003	-6.18968e-004
183	 2.0200000000e+002	 3.83649e-003	-6.95782e-004
184	 2.0300000000e+002	 3.79960e-003	-7.85130e-004
185	 2.0400000000e+002	 3.76202e-003	-8.68369e-004
186	 2.0500000000e+002	 3.72751e-003	-9.67728e-004
187	 2.0600000000e+002	 3.69180e-003	-1.05319e-003
188	 2.0700000000e+002	 3.64715e-003	-1.13291e-003
189	 2.0800000000e+002	 3.60403e-003	-1.21372e-003
190	 2.0900000000e+002	 3.56028e-003	-1.29113e-003
191	 2.1000000000e+002	 3.50567e-003	-1.37205e-003
192	 2.1100000000e+002	 3.45854e-003	-1.44433e-003
193	 2.1200000000e+002	 3.41272e-003	-1.50843e-003
194	 2.1300000000e+002	 3.37052e-003	-1.57596e-003
195	 2.1400000000e+002	 3.32944e-003	-1.63871e-003
196	 2.1500000000e+002	 3.28852e-003	-1.70492e-003
197	 2.1600000000e+002	 3.24923e-003	-1.77089e-003
198	 2.1700000000e+002	 3.20773e-003	-1.83930e-003
199	 2.1800000000e+002	 3.16746e-003	-1.90441e-003
200	 2.1900000000e+002	 3.12100e-003	-1.97639e-003
201	 2.2000000000e+002	 3.07882e-003	-2.03701e-003
202	 2.2100000000e+002	 3.04206e-003	-2.09795e-003
203	 2.2200000000e+002	 2.98793e-003	-2.18052e-003
204	 2.2300000000e+002	 2.94174e-003	-2.23909e-003
205	 2.2400000000e+002	 2.89152e-003	-2.29622e-003
206	 2.2500000000e+002	 2.83456e-003	-2.35287e-003
207	 2.2600000000e+002	 2.78049e-003	-2.40554e-003
208	 2.2700000000e+002	 2.72112e-003	-2.45485e-003
209	 2.2800000000e+002	 2.67200e-003	-2.49987e-003
210	 2.2900000000e+002	 2.62423e-003	-2.53461e-003
211	 2.3000000000e+002	 2.58313e-003	-2.56855e-003
212	 2.3100000000e+002	 2.54978e-003	-2.59987e-003
213	 2.3200000000e+002	 2.51270e-003	-2.64798e-003
214	 2.3300000000e+002	 2.48574e-003	-2.68093e-003
215	 2.3400000000e+002	 2.45273e-003	-2.71767e-003
216	 2.3500000000e+002	 2.43113e-003	-2.75846e-003
217	 2.3600000000e+002	 2.42396e-003	-2.78980e-003
218	 2.3700000000e+002	 2.40535e-003	-2.83722e-003
219	 2.3800000000e+002	 2.39087e-003	-2.88194e-003
220	 2.3900000000e+002	 2.38452e-003	-2.92160e-003
221	 2.4000000000e+002	 2.37882e-003	-2.97082e-003
222	 2.4100000000e+002	 2.37742e-003	-3.02271e-003
223	 2.4200000000e+002	 2.37774e-003	-3.07248e-003
224	 2.4300000000e+002	 2.38394e-003	-3.13847e-003
225	 2.4400000000e+002	 2.39499e-003	-3.20823e-003
226	 2.4500000000e+002	 2.41260e-003	-3.27206e-003
227	 2.4600000000e+002	 2.43185e-003	-3.35072e-003
228	 2.4700000000e+002	 2.45446e-003	-3.43689e-003
229	 2.4800000000e+002	 2.47860e-003	-3.52839e-003
230	 2.4900000000e+002	 2.48909e-003	-3.60668e-003
231	 2.5000000000e+002	 2.38138e-003	-3.66258e-003
232	 2.5100000000e+002	 2.50014e-003	-3.84669e-003
233	 2.5200000000e+002	 2.56943e-003	-3.98524e-003
234	 2.5300000000e+002	 2.59256e-003	-4.11529e-003
235	 2.5400000000e+002	 2.65661e-003	-4.26267e-003
236	 2.5500000000e+002	 2.71089e-003	-4.42047e-003
237	 2.5600000000e+002	 2.74269e-003	-4.57779e-003
238	 2.5700000000e+002	 2.77038e-003	-4.76496e-003
239	 2.5800000000e+002	 2.84338e-003	-4.98185e-003
240	 2.5900000000e+002	 2.91876e-003	-5.21212e-003
241	 2.6000000000e+002	 2.94917e-003	-5.46152e-003
242	 2.6100000000e+002	 3.00258e-003	-5.73541e-003
243	 2.6200000000e+002	 3.04216e-003	-6.06928e-003
244	 2.6300000000e+002	 3.06308e-003	-6.37743e-003
245	 2.6400000000e+002	 3.08642e-003	-6.75601e-003
246	 2.6500000000e+002	 3.11380e-003	-7.14534e-003
247	 2.6600000000e+002	 3.08059e-003	-7.57433e-003
248	 2.6700000000e+002	 3.07219e-003	-8.07062e-003
249	 2.6800000000e+002	 3.06398e-003	-8.61124e-003
250	 2.6900000000e+002	 2.92194e-003	-9.26691e-003
251	 2.7000000000e+002	 2.85741e-003	-9.78428e-003
252	 2.7100000000e+002	 2.73361e-003	-1.04240e-002
253	 2.7200000000e+002	 2.57706e-003	-1.10581e-002
254	 2.7300000000e+002	 2.32976e-003	-1.18305e-002
255	 2.7400000000e+002	 2.07138e-003	-1.27078e-002
256	 2.7500000000e+002	 1.77707e-003	-1.35711e-002
257	 2.7600000000e+002	 1.36482e-003	-1.46087e-002
258	 2.7700000000e+002	 8.62640e-004	-1.57694e-002
259	 2.7800000000e+002	 3.35422e-004	-1.69362e-002
260	 2.7900000000e+002	-4.10227e-004	-1.81708e-002
261	 2.8000000000e+002	-1.41802e-003	-1.97681e-002
262	 2.8100000000e+002	-2.63377e-003	-2.14733e-002
263	 2.8200000000e+002	-4.07254e-003	-2.32706e-002
264	 2.8300000000e+002	-6.05379e-003	-2.52934e-002
265	 2.8400000000e+002	-8.69066e-003	-2.74096e-002
266	 2.8500000000e+002	-1.26173e-002	-3.00743e-002
267	 2.8600000000e+002	-1.72137e-002	-3.21980e-002
268	 2.8700000000e+002	-2.32356e-002	-3.38941e-002
269	 2.8800000000e+002	-3.09965e-002	-3.45763e-002
270	 2.8900000000e+002	-4.07986e-002	-3.26423e-002
271	 2.9000000000e+002	-5.18035e-002	-2.65696e-002
272	 2.9100000000e+002	-6.22274e-002	-1.32836e-002
273	 2.9200000000e+002	-6.52504e-002	 1.97498e-003
274	 2.9300000000e+002	-6.08768e-002	 1.90584e-002
275	 2.9400000000e+002	-5.11922e-002	 3.01235e-002
276	 2.9500000000e+002	-4.08425e-002	 3.57173e-002
277	 2.9600000000e+002	-3.02983e-002	 3.77069e-002
278	 2.9700000000e+002	-2.24180e-002	 3.70587e-002
279	 2.9800000000e+002	-1.66560e-002	 3.52561e-002
280	 2.9900000000e+002	-1.20398e-002	 3.31120e-002
281	 3.0000000000e+002	-8.53398e-003	 3.09088e-002
282	 3.0100000000e+002	-5.63496e-003	 2.85726e-002
283	 3.0200000000e+002	-3.51808e-003	 2.65684e-002
284	 3.0300000000e+002	-2.06923e-003	 2.50150e-002
285	 3.0400000000e+002	-8.83477e-004	 2.35273e-002
286	 3.0500000000e+002	 5.19353e-004	 2.16911e-002
287	 3.0600000000e+002	 1.23518e-003	 2.04199e-002
288	 3.0700000000e+002	 1.94247e-003	 1.92533e-002
289	 3.0800000000e+002	 2.48848e-003	 1.82421e-002
290	 3.0900000000e+002	 3.12220e-003	 1.71010e-002
291	 3.1000000000e+002	 3.49654e-003	 1.62489e-002
292	 3.1100000000e+002	 3.80481e-003	 1.54933e-002
293	 3.1200000000e+002	 4.12461e-003	 1.47021e-002
294	 3.1300000000e+002	 4.41404e-003	 1.39643e-002
295	 3.1400000000e+002	 4.64260e-003	 1.33503e-002
296	 3.1500000000e+002	 4.84003e-003	 1.27686e-002
297	 3.1600000000e+002	 5.06730e-003	 1.21750e-002
298	 3.1700000000e+002	 5.21973e-003	 1.16859e-002
299	 3.1800000000e+002	 5.39370e-003	 1.11652e-002
300	 3.1900000000e+002	 5.55288e-003	 1.06974e-002
301	 3.2000000000e+002	 5.68749e-003	 1.02805e-002
302	 3.2100000000e+002	 5.80528e-003	 9.89617e-003
303	 3.2200000000e+002	 5.92552e-003	 9.42059e-003
304	 3.2300000000e+002	 6.00894e-003	 9.09536e-003
305	 3.2400000000e+002	 6.14104e-003	 8.66781e-003
306	 3.2500000000e+002	 6.21674e-003	 8.36577e-003
307	 3.2600000000e+002	 6.30613e-003	 7.98886e-003
308	 3.2700000000e+002	 6.37510e-003	 7.66352e-003
309	 3.2800000000e+002	 6.43873e-003	 7.36747e-003
310	 3.2900000000e+002	 6.50088e-003	 7.06348e-003
311	 3.3000000000e+002	 6.54011e-003	 6.78408e-003
312	 3.3100000000e+002	 6.59318e-003	 6.47708e-003
313	 3.3200000000e+002	 6.61627e-003	 6.21856e-003
314	 3.3300000000e+002	 6.66930e-003	 5.92203e-003
315	 3.3400000000e+002	 6.69156e-003	 5.67735e-003
316	 3.3500000000e+002	 6.74004e-003	 5.43856e-003
317	 3.3600000000e+002	 6.76286e-003	 5.22072e-003
318	 3.3700000000e+002	 6.78968e-003	 4.97525e-003
319	 3.3800000000e+002	 6.81772e-003	 4.72088e-003
320	 3.3900000000e+002	 6.85117e-003	 4.54365e-003
321	 3.4000000000e+002	 6.86531e-003	 4.31540e-003
322	 3.4100000000e+002	 6.88942e-003	 4.07580e-003
323	 3.4200000000e+002	 6.90455e-003	 3.88690e-003
324	 3.4300000000e+002	 6.91781e-003	 3.63294e-003
325	 3.4400000000e+002	 6.92148e-003	 3.45754e-003
326	 3.4500000000e+002	 6.91816e-003	 3.25670e-003
327	 3.4600000000e+002	 6.90676e-003	 3.04756e-003
328	 3.4700000000e+002	 6.88472e-003	 2.84315e-003
329	 3.4800000000e+002	 6.85937e-003	 2.67286e-003
330	 3.4900000000e+002	 6.83525e-003	 2.52427e-003
331	 3.5000000000e+002	 6.79925e-003	 2.39138e-003
332	 3.5100000000e+002	 6.78704e-003	 2.20142e-003
333	 3.5200000000e+002	 6.78000e-003	 2.05606e-003
334	 3.5300000000e+002	 6.75894e-003	 1.90773e-003
335	 3.5400000000e+002	 6.74910e-003	 1.78635e-003
336	 3.5500000000e+002	 6.73688e-003	 1.65938e-003
337	 3.5600000000e+002	 6.72848e-003	 1.52290e-003
338	 3.5700000000e+002	 6.72339e-003	 1.39624e-003
339	 3.5800000000e+002	 6.72221e-003	 1.28556e-003
340	 3.5900000000e+002	 6.71836e-003	 1.15830e-003
341	 3.6000000000e+002	 6.72106e-003	 1.03819e-003
342	 3.6100000000e+002	 6.72255e-003	 8.97319e-004
343	 3.6200000000e+002	 6.72367e-003	 7.90046e-004
344	 3.6300000000e+002	 6.72147e-003	 6.48076e-004
345	 3.6400000000e+002	 6.72848e-003	 5.45478e-004
346	 3.6500000000e+002	 6.72387e-003	 4.31010e-004
347	 3.6600000000e+002	 6.72047e-003	 3.06671e-004
348	 3.6700000000e+002	 6.71884e-003	 1.94165e-004
349	 3.6800000000e+002	 6.71638e-003	 7.23075e-005
350	 3.6900000000e+002	 6.71732e-003	 2.32127e-006
351	 3.7000000000e+002	 6.72192e-003	-1.09613e-004
352	 3.7100000000e+002	 6.74102e-003	-2.04844e-004
353	 3.7200000000e+002	 6.76083e-003	-2.89771e-004
354	 3.7300000000e+002	 6.78762e-003	-3.86496e-004
355	 3.7400000000e+002	 6.82882e-003	-4.91334e-004
356	 3.7500000000e+002	 6.86786e-003	-5.91426e-004
357	 3.7600000000e+002	 6.90944e-003	-6.66240e-004
358	 3.7700000000e+002	 6.96246e-003	-7.62384e-004
359	 3.7800000000e+002	 7.02123e-003	-8.85989e-004
360	 3.7900000000e+002	 7.09994e-003	-9.99975e-004
361	 3.8000000000e+002	 7.16360e-003	-1.09386e-003
362	 3.8100000000e+002	 7.22904e-003	-1.21419e-003
363	 3.8200000000e+002	 7.31504e-003	-1.36382e-003
364	 3.8300000000e+002	 7.39312e-003	-1.49830e-003
365	 3.8400000000e+002	 7.49382e-003	-1.65154e-003
366	 3.8500000000e+002	 7.56863e-003	-1.81204e-003
367	 3.8600000000e+002	 7.65223e-003	-1.99309e-003
368	 3.8700000000e+002	 7.72163e-003	-2.14234e-003
369	 3.8800000000e+002	 7.79304e-003	-2.27632e-003
370	 3.8900000000e+002	 7.89648e-003	-2.45809e-003
371	 3.9000000000e+002	 8.01315e-003	-2.63244e-003
372	 3.9100000000e+002	 8.10600e-003	-2.83818e-003
373	 3.9200000000e+002	 8.26213e-003	-3.03249e-003
374	 3.9300000000e+002	 8.38452e-003	-3.20636e-003
375	 3.9400000000e+002	 8.53630e-003	-3.43137e-003
376	 3.9500000000e+002	 8.68489e-003	-3.66628e-003
377	 3.9600000000e+002	 8.82984e-003	-3.92116e-003
378	 3.9700000000e+002	 9.00031e-003	-4.22025e-003
379	 3.9800000000e+002	 9.13075e-003	-4.50640e-003
380	 3.9900000000e+002	 9.30320e-003	-4.83396e-003
381	 4.0000000000e+002	 9.48930e-003	-5.20776e-003
382	 4.0100000000e+002	 9.61585e-003	-5.55366e-003
383	 4.0200000000e+002	 9.78600e-003	-5.96930e-003
384	 4.0300000000e+002	 9.98587e-003	-6.39231e-003
385	 4.0400000000e+002	 1.01375e-002	-6.78150e-003
386	 4.0500000000e+002	 1.03063e-002	-7.28897e-003
387	 4.0600000000e+002	 1.04792e-002	-7.80263e-003
388	 4.0700000000e+002	 1.06121e-002	-8.34574e-003
389	 4.0800000000e+002	 1.07704e-002	-8.99213e-003
390	 4.0900000000e+002	 1.09580e-002	-9.58278e-003
391	 4.1000000000e+002	 1.10491e-002	-1.02278e-002
392	 4.1100000000e+002	 1.12111e-002	-1.10488e-002
393	 4.1200000000e+002	 1.12933e-002	-1.18667e-002
394	 4.1300000000e+002	 1.14166e-002	-1.27191e-002
395	 4.1400000000e+002	 1.15311e-002	-1.35561e-002
396	 4.1500000000e+002	 1.15856e-002	-1.45812e-002
397	 4.1600000000e+002	 1.15362e-002	-1.57663e-002
398	 4.1700000000e+002	 1.14873e-002	-1.68038e-002
399	 4.1800000000e+002	 1.14875e-002	-1.81220e-002
400	 4.1900000000e+002	 1.14532e-002	-1.95413e-002
401	 4.2000000000e+002	 1.12914e-002	-2.11851e-002
402	 4.2100000000e+002	 1.10613e-002	-2.28393e-002
403	 4.2200000000e+002	 1.06177e-002	-2.47657e-002
404	 4.2300000000e+002	 1.01625e-002	-2.69132e-002
405	 4.2400000000e+002	 9.40857e-003	-2.88911e-002
406	 4.2500000000e+002	 7.97284e-003	-3.19357e-002
407	 4.2600000000e+002	 6.66696e-003	-3.43490e-002
408	 4.2700000000e+002	 4.57658e-003	-3.76446e-002
409	 4.2800000000e+002	 2.21275e-003	-4.07424e-002
410	 4.2900000000e+002	-9.33275e-004	-4.39462e-002
411	 4.3000000000e+002	-5.17163e-003	-4.74009e-002
412	 4.3100000000e+002	-1.08934e-002	-5.07065e-002
413	 4.3200000000e+002	-1.69322e-002	-5.30182e-002
414	 4.3300000000e+002	-2.59024e-002	-5.46600e-002
415	 4.3400000000e+002	-3.54046e-002	-5.40144e-002
416	 4.3500000000e+002	-4.61615e-002	-5.13617e-002
417	 4.3600000000e+002	-5.51524e-002	-4.53702e-002
418	 4.3700000000e+002	-6.56508e-002	-3.39472e-002
419	 4.3800000000e+002	-7.02026e-002	-2.32992e-002
420	 4.3900000000e+002	-7.21832e-002	-1.07397e-002
421	 4.4000000000e+002	-6.97235e-002	 1.97438e-003
422	 4.4100000000e+002	-6.44470e-002	 1.29945e-002
423	 4.4200000000e+002	-5.94267e-002	 1.89057e-002
424	 4.4300000000e+002	-5.15993e-002	 2.43363e-002
425	 4.4400000000e+002	-4.44013e-002	 2.83104e-002
426	 4.4500000000e+002	-3.86492e-002	 2.99201e-002
427	 4.4600000000e+002	-3.37848e-002	 3.06320e-002
428	 4.4700000000e+002	-2.88248e-002	 3.08425e-002
429	 4.4800000000e+002	-2.47166e-002	 3.03921e-002
430	 4.4900000000e+002	-2.10888e-002	 2.97821e-002
431	 4.5000000000e+002	-1.83140e-002	 2.91784e-002
432	 4.5100000000e+002	-1.55157e-002	 2.79436e-002
433	 4.5200000000e+002	-1.33109e-002	 2.68954e-002
434	 4.5300000000e+002	-1.13633e-002	 2.58768e-002
435	 4.5400000000e+002	-9.92982e-003	 2.50109e-002
436	 4.5500000000e+002	-8.51926e-003	 2.40641e-002
437	 4.5600000000e+002	-7.08790e-003	 2.31130e-002
438	 4.5700000000e+002	-6.18139e-003	 2.23678e-002
439	 4.5800000000e+002	-5.16781e-003	 2.14875e-002
440	 4.5900000000e+002	-4.18200e-003	 2.06737e-002
441	 4.6000000000e+002	-3.42791e-003	 1.99781e-002
442	 4.6100000000e+002	-2.82723e-003	 1.93925e-002
443	 4.6200000000e+002	-2.28301e-003	 1.87773e-002
444	 4.6300000000e+002	-1.59055e-003	 1.80565e-002
445	 4.6400000000e+002	-1.17725e-003	 1.75615e-002
446	 4.6500000000e+002	-6.84078e-004	 1.70072e-002
447	 4.6600000000e+002	-2.57126e-004	 1.64784e-002
448	 4.6700000000e+002	 1.46106e-004	 1.60142e-002
449	 4.6800000000e+002	 4.54735e-004	 1.56268e-002
450	 4.6900000000e+002	 8.09802e-004	 1.51883e-002
451	 4.7000000000e+002	 1.12106e-003	 1.48203e-002
452	 4.7100000000e+002	 1.41392e-003	 1.44681e-002
453	 4.7200000000e+002	 1.71264e-003	 1.41228e-002
454	 4.7300000000e+002	 2.01918e-003	 1.37272e-002
455	 4.7400000000e+002	 2.23766e-003	 1.34330e-002
456	 4.7500000000e+002	 2.46370e-003	 1.31808e-002
457	 4.7600000000e+002	 2.77309e-003	 1.28393e-002
458	 4.7700000000e+002	 2.97161e-003	 1.25999e-002
459	 4.7800000000e+002	 3.20263e-003	 1.23300e-002
460	 4.7900000000e+002	 3.41461e-003	 1.21067e-002
461	 4.8000000000e+002	 3.66881e-003	 1.18580e-002
462	 4.8100000000e+002	 3.86766e-003	 1.15670e-002
463	 4.8200000000e+002	 4.06828e-003	 1.12714e-002
464	 4.8300000000e+002	 4.23260e-003	 1.10413e-002
465	 4.8400000000e+002	 4.40779e-003	 1.08083e-002
466	 4.8500000000e+002	 4.56953e-003	 1.05977e-002
467	 4.8600000000e+002	 4.74538e-003	 1.03475e-002
468	 4.8700000000e+002	 4.89024e-003	 1.01508e-002
469	 4.8800000000e+002	 5.05292e-003	 9.92335e-003
470	 4.8900000000e+002	 5.17813e-003	 9.75140e-003
471	 4.9000000000e+002	 5.35412e-003	 9.51858e-003
472	 4.9100000000e+002	 5.47342e-003	 9.35196e-003
473	 4.9200000000e+002	 5.62649e-003	 9.15647e-003
474	 4.9300000000e+002	 5.77907e-003	 8.94436e-003
475	 4.9400000000e+002	 5.91860e-003	 8.76520e-003
476	 4.9500000000e+002	 6.06275e-003	 8.55125e-003
477	 4.9600000000e+002	 6.17338e-003	 8.38278e-003
478	 4.9700000000e+002	 6.26910e-003	 8.23538e-003
479	 4.9800000000e+002	 6.39433e-003	 8.04851e-003
480	 4.9900000000e+002	 6.51878e-003	 7.85737e-003
481	 5.0000000000e+002	 6.61033e-003	 7.70894e-003
482	 5.0100000000e+002	 6.71855e-003	 7.55528e-003
483	 5.0200000000e+002	 6.84926e-003	 7.37531e-003
484	 5.0300000000e+002	 6.94113e-003	 7.23682e-003
485	 5.0400000000e+002	 7.04853e-003	 7.07524e-003
486	 5.0500000000e+002	 7.13412e-003	 6.93782e-003
487	 5.0600000000e+002	 7.22362e-003	 6.80291e-003
488	 5.0700000000e+002	 7.34506e-003	 6.65118e-003
489	 5.0800000000e+002	 7.42695e-003	 6.55517e-003
490	 5.0900000000e+002	 7.53452e-003	 6.42804e-003
491	 5.1000000000e+002	 7.64118e-003	 6.31810e-003
492	 5.1100000000e+002	 7.75756e-003	 6.17632e-003
493	 5.1200000000e+002	 7.89457e-003	 6.05033e-003
494	 5.1300000000e+002	 8.00384e-003	 5.95757e-003
495	 5.1400000000e+002	 8.11667e-003	 5.86488e-003
496	 5.1500000000e+002	 8.23097e-003	 5.75445e-003
497	 5.1600000000e+002	 8.36837e-003	 5.65527e-003
498	 5.1700000000e+002	 8.50039e-003	 5.57085e-003
499	 5.1800000000e+002	 8.67485e-003	 5.47583e-003
500	 5.1900000000e+002	 8.81880e-003	 5.34673e-003
501	 5.2000000000e+002	 8.97979e-003	 5.26243e-003
502	 5.2100000000e+002	 9.17690e-003	 5.15727e-003
503	 5.2200000000e+002	 9.35159e-003	 5.05988e-003
504	 5.2300000000e+002	 9.53894e-003	 4.94856e-003
505	 5.2400000000e+002	 9.70218e-003	 4.85827e-003
506	 5.2500000000e+002	 9.91781e-003	 4.75458e-003
507	 5.2600000000e+002	 1.01499e-002	 4.63298e-003
508	 5.2700000000e+002	 1.03546e-002	 4.49756e-003
509	 5.2800000000e+002	 1.05981e-002	 4.33600e-003
510	 5.2900000000e+002	 1.08090e-002	 4.21862e-003
511	 5.3000000000e+002	 1.10733e-002	 4.10584e-003
512	 5.3100000000e+002	 1.13303e-002	 3.91586e-003
513	 5.3200000000e+002	 1.15547e-002	 3.76040e-003
514	 5.3300000000e+002	 1.18800e-002	 3.64187e-003
515	 5.3400000000e+002	 1.21348e-002	 3.50935e-003
516	 5.3500000000e+002	 1.24318e-002	 3.33963e-003
517	 5.3600000000e+002	 1.27619e-002	 3.13207e-003
518	 5.3700000000e+002	 1.30719e-002	 2.94665e-003
519	 5.3800000000e+002	 1.33852e-002	 2.68028e-003
520	 5.3900000000e+002	 1.36079e-002	 2.37055e-003
521	 5.4000000000e+002	 1.41408e-002	 2.14039e-003
522	 5.4100000000e+002	 1.46403e-002	 1.90347e-003
523	 5.4200000000e+002	 1.50390e-002	 1.62366e-003
524	 5.4300000000e+002	 1.54083e-002	 1.31077e-003
525	 5.4400000000e+002	 1.59429e-002	 9.31653e-004
526	 5.4500000000e+002	 1.63510e-002	 5.87914e-004
527	 5.4600000000e+002	 1.68723e-002	 1.17509e-004
528	 5.4700000000e+002	 1.73291e-002	-3.06377e-004
529	 5.4800000000e+002	 1.78515e-002	-7.50277e-004
530	 5.4900000000e+002	 1.83691e-002	-1.28134e-003
531	 5.5000000000e+002	 1.88184e-002	-1.94901e-003
532	 5.5100000000e+002	 1.93852e-002	-2.48633e-003
533	 5.5200000000e+002	 2.00920e-002	-3.25715e-003
534	 5.5300000000e+002	 2.06710e-002	-4.00954e-003
535	 5.5400000000e+002	 2.12350e-002	-4.91392e-003
536	 5.5500000000e+002	 2.17819e-002	-5.75875e-003
537	 5.5600000000e+002	 2.24499e-002	-6.84883e-003
538	 5.5700000000e+002	 2.29420e-002	-7.82881e-003
539	 5.5800000000e+002	 2.34831e-002	-8.96735e-003
540	 5.5900000000e+002	 2.40625e-002	-1.02749e-002
541	 5.6000000000e+002	 2.45780e-002	-1.16496e-002
542	 5.6100000000e+002	 2.50804e-002	-1.32452e-002
543	 5.6200000000e+002	 2.56143e-002	-1.49124e-002
544	 5.6300000000e+002	 2.59337e-002	-1.65905e-002
545	 5.6400000000e+002	 2.61836e-002	-1.81719e-002
546	 5.6500000000e+002	 2.64059e-002	-2.06403e-002
547	 5.6600000000e+002	 2.66408e-002	-2.28616e-002
548	 5.6700000000e+002	 2.67670e-002	-2.53613e-002
549	 5.6800000000e+002	 2.64798e-002	-2.80627e-002
550	 5.6900000000e+002	 2.62531e-002	-3.07628e-002
551	 5.7000000000e+002	 2.56188e-002	-3.48231e-002
552	 5.7100000000e+002	 2.45776e-002	-3.76709e-002
553	 5.7200000000e+002	 2.32524e-002	-4.17576e-002
554	 5.7300000000e+002	 2.15733e-002	-4.53277e-002
555	 5.7400000000e+002	 1.91490e-002	-4.92342e-002
556	 5.7500000000e+002	 1.57896e-002	-5.37858e-002
557	 5.7600000000e+002	 1.07445e-002	-5.83692e-002
558	 5.7700000000e+002	 6.07086e-003	-6.17693e-002
559	 5.7800000000e+002	-6.78774e-004	-6.52732e-002
560	 5.7900000000e+002	-8.50793e-003	-6.79765e-002
561	 5.8000000000e+002	-1.71453e-002	-6.90773e-002
562	 5.8100000000e+002	-2.74092e-002	-6.80186e-002
563	 5.8200000000e+002	-3.52113e-002	-6.54607e-002
564	 5.8300000000e+002	-4.46436e-002	-6.01440e-002
565	 5.8400000000e+002	-5.20647e-002	-5.30316e-002
566	 5.8500000000e+002	-5.72494e-002	-4.43110e-002
567	 5.8600000000e+002	-6.08845e-002	-3.57706e-002
568	 5.8700000000e+002	-6.18617e-002	-2.71030e-002
569	 5.8800000000e+002	-6.14003e-002	-1.86146e-002
570	 5.8900000000e+002	-5.98876e-002	-1.22140e-002
571	 5.9000000000e+002	-5.73960e-002	-5.95919e-003
572	 5.9100000000e+002	-5.47881e-002	-1.27219e-003
573	 5.9200000000e+002	-5.13539e-002	 3.24526e-003
574	 5.9300000000e+002	-4.81202e-002	 6.55302e-003
575	 5.9400000000e+002	-4.49265e-002	 9.28242e-003
576	 5.9500000000e+002	-4.17365e-002	 1.14438e-002
577	 5.9600000000e+002	-3.92981e-002	 1.28892e-002
578	 5.9700000000e+002	-3.66374e-002	 1.41516e-002
579	 5.9800000000e+002	-3.36867e-002	 1.54317e-002
580	 5.9900000000e+002	-3.13387e-002	 1.60355e-002
581	 6.0000000000e+002	-2.93042e-002	 1.65363e-002
582	 6.0100000000e+002	-2.74522e-002	 1.68198e-002
583	 6.0200000000e+002	-2.56336e-002	 1.70717e-002
584	 6.0300000000e+002	-2.38374e-002	 1.71362e-002
585	 6.0400000000e+002	-2.23503e-002	 1.72234e-002
586	 6.0500000000e+002	-2.10127e-002	 1.73484e-002
587	 6.0600000000e+002	-1.98150e-002	 1.72924e-002
588	 6.0700000000e+002	-1.85902e-002	 1.72499e-002
589	 6.0800000000e+002	-1.76800e-002	 1.71768e-002
590	 6.0900000000e+002	-1.66815e-002	 1.71639e-002
591	 6.1000000000e+002	-1.56724e-002	 1.71178e-002
592	 6.1100000000e+002	-1.49318e-002	 1.70857e-002
593	 6.1200000000e+002	-1.41070e-002	 1.70653e-002
594	 6.1300000000e+002	-1.33343e-002	 1.70425e-002
595	 6.1400000000e+002	-1.25183e-002	 1.69806e-002
596	 6.1500000000e+002	-1.18400e-002	 1.69347e-002
597	 6.1600000000e+002	-1.11638e-002	 1.68333e-002
598	 6.1700000000e+002	-1.05424e-002	 1.67867e-002
599	 6.1800000000e+002	-9.90145e-003	 1.67109e-002
600	 6.1900000000e+002	-9.25364e-003	 1.66235e-002
601	 6.2000000000e+002	-8.79578e-003	 1.65439e-002
602	 6.2100000000e+002	-8.21031e-003	 1.64695e-002
603	 6.2200000000e+002	-7.67324e-003	 1.64062e-002
604	 6.2300000000e+002	-7.18898e-003	 1.63141e-002
605	 6.2400000000e+002	-6.65288e-003	 1.62329e-002
606	 6.2500000000e+002	-6.23211e-003	 1.61416e-002
607	 6.2600000000e+002	-5.77964e-003	 1.60521e-002
608	 6.2700000000e+002	-5.24594e-003	 1.59441e-002
609	 6.2800000000e+002	-4.86779e-003	 1.58733e-002
610	 6.2900000000e+002	-4.47931e-003	 1.58029e-002
611	 6.3000000000e+002	-4.07889e-003	 1.57263e-002
612	 6.3100000000e+002	-3.69930e-003	 1.56517e-002
613	 6.3200000000e+002	-3.27388e-003	 1.55692e-002
614	 6.3300000000e+002	-2.91376e-003	 1.55041e-002
615	 6.3400000000e+002	-2.49988e-003	 1.54125e-002
616	 6.3500000000e+002	-2.12201e-003	 1.53409e-002
617	 6.3600000000e+002	-1.80273e-003	 1.52521e-002
618	 6.3700000000e+002	-1.38875e-003	 1.51379e-002
619	 6.3800000000e+002	-1.07939e-003	 1.50588e-002
620	 6.3900000000e+002	-7.86064e-004	 1.49680e-002
621	 6.4000000000e+002	-4.21922e-004	 1.48673e-002
622	 6.4100000000e+002	-9.12514e-005	 1.47464e-002
623	 6.4200000000e+002	 1.72531e-004	 1.46470e-002
624	 6.4300000000e+002	 4.90342e-004	 1.45269e-002
625	 6.4400000000e+002	 7.58753e-004	 1.44325e-002
626	 6.4500000000e+002	 1.00703e-003	 1.43377e-002
627	 6.4600000000e+002	 1.31104e-003	 1.42230e-002
628	 6.4700000000e+002	 1.52238e-003	 1.41546e-002
629	 6.4800000000e+002	 1.78600e-003	 1.40750e-002
630	 6.4900000000e+002	 2.00555e-003	 1.40199e-002
631	 6.5000000000e+002	 2.25110e-003	 1.40176e-002
632	 6.5100000000e+002	 2.50793e-003	 1.39403e-002
633	 6.5200000000e+002	 2.73286e-003	 1.39011e-002
634	 6.5300000000e+002	 2.96505e-003	 1.38912e-002
635	 6.5400000000e+002	 3.19367e-003	 1.38848e-002
636	 6.5500000000e+002	 3.44877e-003	 1.38638e-002
637	 6.5600000000e+002	 3.73891e-003	 1.38751e-002
638	 6.5700000000e+002	 4.02533e-003	 1.38808e-002
639	 6.5800000000e+002	 4.27341e-003	 1.39049e-002
640	 6.5900000000e+002	 4.56510e-003	 1.39130e-002
641	 6.6000000000e+002	 4.81953e-003	 1.39383e-002
642	 6.6100000000e+002	 5.10652e-003	 1.39579e-002
643	 6.6200000000e+002	 5.47942e-003	 1.39892e-002
644	 6.6300000000e+002	 5.81412e-003	 1.40399e-002
645	 6.6400000000e+002	 6.14431e-003	 1.40660e-002
646	 6.6500000000e+002	 6.53006e-003	 1.40945e-002
647	 6.6600000000e+002	 6.90147e-003	 1.40898e-002
648	 6.6700000000e+002	 7.29472e-003	 1.41115e-002
649	 6.6800000000e+002	 7.68321e-003	 1.41242e-002
650	 6.6900000000e+002	 8.05401e-003	 1.41477e-002
651	 6.7000000000e+002	 8.50645e-003	 1.41587e-002
652	 6.7100000000e+002	 8.98059e-003	 1.41765e-002
653	 6.7200000000e+002	 9.48949e-003	 1.41742e-002
654	 6.7300000000e+002	 9.94217e-003	 1.41665e-002
655	 6.7400000000e+002	 1.04181e-002	 1.41604e-002
656	 6.7500000000e+002	 1.09859e-002	 1.41307e-002
657	 6.7600000000e+002	 1.15182e-002	 1.41131e-002
658	 6.7700000000e+002	 1.20786e-002	 1.40777e-002
659	 6.7800000000e+002	 1.27605e-002	 1.39933e-002
660	 6.7900000000e+002	 1.34341e-002	 1.38424e-002
661	 6.8000000000e+002	 1.40579e-002	 1.37315e-002
662	 6.8100000000e+002	 1.46960e-002	 1.35418e-002
663	 6.8200000000e+002	 1.54486e-002	 1.33517e-002
664	 6.8300000000e+002	 1.60575e-002	 1.31530e-002
665	 6.8400000000e+002	 1.68056e-002	 1.28668e-002
666	 6.8500000000e+002	 1.76105e-002	 1.25525e-002
667	 6.8600000000e+002	 1.83136e-002	 1.22425e-002
668	 6.8700000000e+002	 1.90317e-002	 1.19562e-002
669	 6.8800000000e+002	 1.97537e-002	 1.15980e-002
670	 6.8900000000e+002	 2.07287e-002	 1.10419e-002
671	 6.9000000000e+002	 2.14787e-002	 1.05811e-002
672	 6.9100000000e+002	 2.22463e-002	 1.00906e-002
673	 6.9200000000e+002	 2.30158e-002	 9.61112e-003
674	 6.9300000000e+002	 2.38846e-002	 8.93800e-003
675	 6.9400000000e+002	 2.46756e-002	 8.22330e-003
676	 6.9500000000e+002	 2.54764e-002	 7.53626e-003
677	 6.9600000000e+002	 2.63162e-002	 6.86133e-003
678	 6.9700000000e+002	 2.71273e-002	 6.00809e-003
679	 6.9800000000e+002	 2.79930e-002	 5.18109e-003
680	 6.9900000000e+002	 2.87051e-002	 4.41257e-003
681	 7.0000000000e+002	 2.97751e-002	 3.46040e-003
682	 7.0100000000e+002	 3.05837e-002	 2.60515e-003
683	 7.0200000000e+002	 3.15291e-002	 1.38374e-003
684	 7.0300000000e+002	 3.25188e-002	 2.07038e-004
685	 7.0400000000e+002	 3.36103e-002	-1.18564e-003
686	 7.0500000000e+002	 3.45392e-002	-2.64213e-003
687	 7.0600000000e+002	 3.53976e-002	-4.19892e-003
688	 7.0700000000e+002	 3.62899e-002	-5.80253e-003
689	 7.0800000000e+002	 3.73097e-002	-7.86607e-003
690	 7.0900000000e+002	 3.80057e-002	-9.38053e-003
691	 7.1000000000e+002	 3.88647e-002	-1.19659e-002
692	 7.1100000000e+002	 3.96266e-002	-1.45126e-002
693	 7.1200000000e+002	 4.01447e-002	-1.66655e-002
694	 7.1300000000e+002	 4.07753e-002	-1.97336e-002
695	 7.1400000000e+002	 4.12146e-002	-2.30000e-002
696	 7.1500000000e+002	 4.14392e-002	-2.59024e-002
697	 7.1600000000e+002	 4.13195e-002	-2.94774e-002
698	 7.1700000000e+002	 4.07471e-002	-3.37574e-002
699	 7.1800000000e+002	 3.99373e-002	-3.79921e-002
700	 7.1900000000e+002	 3.85180e-002	-4.22807e-002
701	 7.2000000000e+002	 3.66065e-002	-4.68769e-002
702	 7.2100000000e+002	 3.41466e-002	-5.15208e-002
703	 7.2200000000e+002	 3.05612e-002	-5.62185e-002
704	 7.2300000000e+002	 2.60601e-002	-6.10883e-002
705	 7.2400000000e+002	 2.03141e-002	-6.49981e-002
706	 7.2500000000e+002	 1.33944e-002	-6.86440e-002
707	 7.2600000000e+002	 6.52138e-003	-7.05925e-002
708	 7.2700000000e+002	 5.14039e-004	-7.11894e-002
709	 7.2800000000e+002	-9.35773e-003	-7.05006e-002
710	 7.2900000000e+002	-1.66916e-002	-6.87976e-002
711	 7.3000000000e+002	-2.23206e-002	-6.61927e-002
712	 7.3100000000e+002	-2.93215e-002	-6.12478e-002
713	 7.3200000000e+002	-3.39479e-002	-5.66162e-002
714	 7.3300000000e+002	-3.78125e-002	-5.17849e-002
715	 7.3400000000e+002	-4.06800e-002	-4.65693e-002
716	 7.3500000000e+002	-4.26876e-002	-4.12811e-002
717	 7.3600000000e+002	-4.38225e-002	-3.62160e-002
718	 7.3700000000e+002	-4.44011e-002	-3.14449e-002
719	 7.3800000000e+002	-4.44998e-002	-2.66731e-002
720	 7.3900000000e+002	-4.41782e-002	-2.31091e-002
721	 7.4000000000e+002	-4.37007e-002	-1.97763e-002
722	 7.4100000000e+002	-4.28489e-002	-1.67885e-002
723	 7.4200000000e+002	-4.19440e-002	-1.36843e-002
724	 7.4300000000e+002	-4.08174e-002	-1.09353e-002
725	 7.4400000000e+002	-3.97135e-002	-8.71206e-003
726	 7.4500000000e+002	-3.86544e-002	-6.81194e-003
727	 7.4600000000e+002	-3.75756e-002	-5.08253e-003
728	 7.4700000000e+002	-3.62333e-002	-3.06697e-003
729	 7.4800000000e+002	-3.52693e-002	-1.63303e-003
730	 7.4900000000e+002	-3.41790e-002	-3.31364e-004
731	 7.5000000000e+002	-3.30632e-002	 9.58700e-004
732	 7.5100000000e+002	-3.19823e-002	 2.10636e-003
733	 7.5200000000e+002	-3.09206e-002	 3.24603e-003
734	 7.5300000000e+002	-3.00023e-002	 4.17574e-003
735	 7.5400000000e+002	-2.90030e-002	 5.03578e-003
736	 7.5500000000e+002	-2.80738e-002	 5.77097e-003
737	 7.5600000000e+002	-2.71048e-002	 6.53702e-003
738	 7.5700000000e+002	-2.61907e-002	 7.19496e-003
739	 7.5800000000e+002	-2.52556e-002	 7.85461e-003
740	 7.5900000000e+002	-2.45467e-002	 8.32700e-003
741	 7.6000000000e+002	-2.37210e-002	 8.78625e-003
742	 7.6100000000e+002	-2.29478e-002	 9.27654e-003
743	 7.6200000000e+002	-2.21967e-002	 9.70375e-003
744	 7.6300000000e+002	-2.14033e-002	 1.01207e-002
745	 7.6400000000e+002	-2.07382e-002	 1.04488e-002
746	 7.6500000000e+002	-2.00481e-002	 1.08148e-002
747	 7.6600000000e+002	-1.94735e-002	 1.11115e-002
748	 7.6700000000e+002	-1.87779e-002	 1.14503e-002
749	 7.6800000000e+002	-1.81607e-002	 1.16980e-002
750	 7.6900000000e+002	-1.76054e-002	 1.19485e-002
751	 7.7000000000e+002	-1.70577e-002	 1.21979e-002
752	 7.7100000000e+002	-1.64980e-002	 1.24611e-002
753	 7.7200000000e+002	-1.58991e-002	 1.26690e-002
754	 7.7300000000e+002	-1.53608e-002	 1.28839e-002
755	 7.7400000000e+002	-1.48858e-002	 1.30427e-002
756	 7.7500000000e+002	-1.42938e-002	 1.32096e-002
757	 7.7600000000e+002	-1.38229e-002	 1.33584e-002
758	 7.7700000000e+002	-1.33452e-002	 1.35061e-002
759	 7.7800000000e+002	-1.29214e-002	 1.35994e-002
760	 7.7900000000e+002	-1.24491e-002	 1.37138e-002
761	 7.8000000000e+002	-1.20486e-002	 1.38260e-002
762	 7.8100000000e+002	-1.16583e-002	 1.39108e-002
763	 7.8200000000e+002	-1.12838e-002	 1.40038e-002
764	 7.8300000000e+002	-1.09572e-002	 1.41162e-002
765	 7.8400000000e+002	-1.06283e-002	 1.42292e-002
766	 7.8500000000e+002	-1.02725e-002	 1.43781e-002
767	 7.8600000000e+002	-9.96994e-003	 1.45208e-002
768	 7.8700000000e+002	-9.68231e-003	 1.46599e-002
769	 7.8800000000e+002	-9.30271e-003	 1.48370e-002
770	 7.8900000000e+002	-8.94945e-003	 1.50044e-002
771	 7.9000000000e+002	-8.59757e-003	 1.51619e-002
772	 7.9100000000e+002	-8.20105e-003	 1.53265e-002
773	 7.9200000000e+002	-7.92270e-003	 1.54415e-002
774	 7.9300000000e+002	-7.60225e-003	 1.55654e-002
775	 7.9400000000e+002	-7.19098e-003	 1.57235e-002
776	 7.9500000000e+002	-6.86634e-003	 1.58722e-002
777	 7.9600000000e+002	-6.59920e-003	 1.59976e-002
778	 7.9700000000e+002	-6.19087e-003	 1.61337e-002
779	 7.9800000000e+002	-5.91183e-003	 1.62720e-002
780	 7.9900000000e+002	-5.56510e-003	 1.64415e-002
781	 8.0000000000e+002	-5.29236e-003	 1.65713e-002
782	 8.0100000000e+002	-5.00449e-003	 1.67151e-002
783	 8.0200000000e+002	-4.62195e-003	 1.69407e-002
784	 8.0300000000e+002	-4.29064e-003	 1.70876e-002
785	 8.0400000000e+002	-3.99731e-003	 1.72393e-002
786	 8.0500000000e+002	-3.64897e-003	 1.74323e-002
787	 8.0600000000e+002	-3.26132e-003	 1.76789e-002
788	 8.0700000000e+002	-2.89847e-003	 1.78673e-002
789	 8.0800000000e+002	-2.57745e-003	 1.80854e-002
790	 8.0900000000e+002	-2.21366e-003	 1.83244e-002
791	 8.1000000000e+002	-1.84764e-003	 1.85255e-002
792	 8.1100000000e+002	-1.43526e-003	 1.88188e-002
793	 8.1200000000e+002	-1.02113e-003	 1.90810e-002
794	 8.1300000000e+002	-5.19169e-004	 1.93817e-002
795	 8.1400000000e+002	-2.89906e-005	 1.96831e-002
796	 8.1500000000e+002	 4.01859e-004	 1.99846e-002
797	 8.1600000000e+002	 9.69732e-004	 2.02776e-002
798	 8.1700000000e+002	 1.46668e-003	 2.04894e-002
799	 8.1800000000e+002	 2.25847e-003	 2.08109e-002
800	 8.1900000000e+002	 2.85162e-003	 2.10411e-002
801	 8.2000000000e+002	 3.55583e-003	 2.12585e-002
802	 8.2100000000e+002	 4.37431e-003	 2.15416e-002
803	 8.2200000000e+002	 5.12827e-003	 2.17206e-002
804	 8.2300000000e+002	 5.84023e-003	 2.18448e-002
805	 8.2400000000e+002	 6.85559e-003	 2.19542e-002
806	 8.2500000000e+002	 7.73041e-003	 2.20499e-002
807	 8.2600000000e+002	 8.42420e-003	 2.20864e-002
808	 8.2700000000e+002	 9.48562e-003	 2.21349e-002
809	 8.2800000000e+002	 1.02604e-002	 2.20747e-002
810	 8.2900000000e+002	 1.13006e-002	 2.20148e-002
811	 8.3000000000e+002	 1.21723e-002	 2.18994e-002
812	 8.3100000000e+002	 1.31803e-002	 2.17887e-002
813	 8.3200000000e+002	 1.41076e-002	 2.16642e-002
814	 8.3300000000e+002	 1.52175e-002	 2.14452e-002
815	 8.3400000000e+002	 1.62977e-002	 2.11178e-002
816	 8.3500000000e+002	 1.73644e-002	 2.08449e-002
817	 8.3600000000e+002	 1.85546e-002	 2.03835e-002
818	 8.3700000000e+002	 1.96964e-002	 1.97697e-002
819	 8.3800000000e+002	 2.08398e-002	 1.91725e-002
820	 8.3900000000e+002	 2.18451e-002	 1.86446e-002
821	 8.4000000000e+002	 2.29852e-002	 1.77223e-002
822	 8.4100000000e+002	 2.38737e-002	 1.70006e-002
823	 8.4200000000e+002	 2.48270e-002	 1.59394e-002
824	 8.4300000000e+002	 2.57083e-002	 1.48578e-002
825	 8.4400000000e+002	 2.63894e-002	 1.39413e-002
826	 8.4500000000e+002	 2.71302e-002	 1.28262e-002
827	 8.4600000000e+002	 2.78389e-002	 1.16811e-002
828	 8.4700000000e+002	 2.82569e-002	 1.08330e-002
829	 8.4800000000e+002	 2.87634e-002	 9.87757e-003
830	 8.4900000000e+002	 2.93811e-002	 8.81019e-003
831	 8.5000000000e+002	 2.97981e-002	 7.99015e-003
832	 8.5100000000e+002	 3.01747e-002	 7.02525e-003
833	 8.5200000000e+002	 3.06919e-002	 6.05881e-003
834	 8.5300000000e+002	 3.12181e-002	 5.14637e-003
835	 8.5400000000e+002	 3.16957e-002	 4.15818e-003
836	 8.5500000000e+002	 3.21467e-002	 3.35441e-003
837	 8.5600000000e+002	 3.27758e-002	 2.36418e-003
838	 8.5700000000e+002	 3.34082e-002	 1.38795e-003
839	 8.5800000000e+002	 3.41999e-002	 3.50908e-004
840	 8.5900000000e+002	 3.47471e-002	-6.33507e-004
841	 8.6000000000e+002	 3.56627e-002	-2.04176e-003
842	 8.6100000000e+002	 3.64222e-002	-3.36415e-003
843	 8.6200000000e+002	 3.72634e-002	-4.97989e-003
844	 8.6300000000e+002	 3.79885e-002	-6.48864e-003
845	 8.6400000000e+002	 3.88834e-002	-8.47219e-003
846	 8.6500000000e+002	 3.96676e-002	-1.03443e-002
847	 8.6600000000e+002	 4.03059e-002	-1.25525e-002
848	 8.6700000000e+002	 4.07728e-002	-1.49473e-002
849	 8.6800000000e+002	 4.11933e-002	-1.79616e-002
850	 8.6900000000e+002	 4.14910e-002	-2.07576e-002
851	 8.7000000000e+002	 4.13631e-002	-2.36843e-002
852	 8.7100000000e+002	 4.10741e-002	-2.67605e-002
853	 8.7200000000e+002	 4.06310e-002	-3.01760e-002
854	 8.7300000000e+002	 3.92974e-002	-3.40814e-002
855	 8.7400000000e+002	 3.78032e-002	-3.78232e-002
856	 8.7500000000e+002	 3.58033e-002	-4.13787e-002
857	 8.7600000000e+002	 3.32771e-002	-4.47760e-002
858	 8.7700000000e+002	 3.00029e-002	-4.82276e-002
859	 8.7800000000e+002	 2.63591e-002	-5.11795e-002
860	 8.7900000000e+002	 2.19258e-002	-5.36874e-002
861	 8.8000000000e+002	 1.79620e-002	-5.54564e-002
862	 8.8100000000e+002	 1.33876e-002	-5.67216e-002
863	 8.8200000000e+002	 8.29581e-003	-5.73321e-002
864	 8.8300000000e+002	 3.31408e-003	-5.73427e-002
865	 8.8400000000e+002	-8.11790e-004	-5.66987e-002
866	 8.8500000000e+002	-5.05888e-003	-5.57302e-002
867	 8.8600000000e+002	-9.07490e-003	-5.41413e-002
868	 8.8700000000e+002	-1.30175e-002	-5.20811e-002
869	 8.8800000000e+002	-1.59326e-002	-5.02320e-002
870	 8.8900000000e+002	-1.88584e-002	-4.76655e-002
871	 8.9000000000e+002	-2.12850e-002	-4.53377e-002
872	 8.9100000000e+002	-2.34226e-002	-4.27330e-002
873	 8.9200000000e+002	-2.52453e-002	-4.02318e-002
874	 8.9300000000e+002	-2.68788e-002	-3.74904e-002
875	 8.9400000000e+002	-2.80841e-002	-3.50512e-002
876	 8.9500000000e+002	-2.88545e-002	-3.30481e-002
877	 8.9600000000e+002	-2.98313e-002	-3.01185e-002
878	 8.9700000000e+002	-3.03940e-002	-2.81165e-002
879	 8.9800000000e+002	-3.08674e-002	-2.61130e-002
880	 8.9900000000e+002	-3.11609e-002	-2.40545e-002
881	 9.0000000000e+002	-3.15020e-002	-2.19638e-002
882	 9.0100000000e+002	-3.15736e-002	-2.00642e-002
883	 9.0200000000e+002	-3.16323e-002	-1.84822e-002
884	 9.0300000000e+002	-3.14999e-002	-1.66984e-002
885	 9.0400000000e+002	-3.15246e-002	-1.52596e-002
886	 9.0500000000e+002	-3.13558e-002	-1.36482e-002
887	 9.0600000000e+002	-3.10998e-002	-1.19085e-002
888	 9.0700000000e+002	-3.08502e-002	-1.06991e-002
889	 9.0800000000e+002	-3.05801e-002	-9.47351e-003
890	 9.0900000000e+002	-3.02629e-002	-8.17147e-003
891	 9.1000000000e+002	-2.99006e-002	-7.06470e-003
892	 9.1100000000e+002	-2.94956e-002	-5.93465e-003
893	 9.1200000000e+002	-2.91057e-002	-4.94836e-003
894	 9.1300000000e+002	-2.86926e-002	-3.89563e-003
895	 9.1400000000e+002	-2.82576e-002	-2.93379e-003
896	 9.1500000000e+002	-2.78937e-002	-2.09140e-003
897	 9.1600000000e+002	-2.74625e-002	-1.19167e-003
898	 9.1700000000e+002	-2.71681e-002	-5.09560e-004
899	 9.1800000000e+002	-2.66871e-002	 4.17817e-004
900	 9.1900000000e+002	-2.62955e-002	 1.12202e-003
901	 9.2000000000e+002	-2.58946e-002	 1.81835e-003
902	 9.2100000000e+002	-2.55055e-002	 2.47916e-003
903	 9.2200000000e+002	-2.50564e-002	 3.11412e-003
904	 9.2300000000e+002	-2.47115e-002	 3.66352e-003
905	 9.2400000000e+002	-2.42963e-002	 4.30537e-003
906	 9.2500000000e+002	-2.39087e-002	 4.87912e-003
907	 9.2600000000e+002	-2.35854e-002	 5.36527e-003
908	 9.2700000000e+002	-2.32285e-002	 5.86674e-003
909	 9.2800000000e+002	-2.29256e-002	 6.37909e-003
910	 9.2900000000e+002	-2.25456e-002	 6.92321e-003
911	 9.3000000000e+002	-2.22789e-002	 7.36260e-003
912	 9.3100000000e+002	-2.19767e-002	 7.87340e-003
913	 9.3200000000e+002	-2.17312e-002	 8.28541e-003
914	 9.3300000000e+002	-2.14064e-002	 8.80809e-003
915	 9.3400000000e+002	-2.11060e-002	 9.32909e-003
916	 9.3500000000e+002	-2.08137e-002	 9.80778e-003
917	 9.3600000000e+002	-2.05735e-002	 1.02132e-002
918	 9.3700000000e+002	-2.02547e-002	 1.07395e-002
919	 9.3800000000e+002	-1.99617e-002	 1.11937e-002
920	 9.3900000000e+002	-1.97270e-002	 1.17065e-002
921	 9.4000000000e+002	-1.94557e-002	 1.22323e-002
922	 9.4100000000e+002	-1.92445e-002	 1.26964e-002
923	 9.4200000000e+002	-1.89779e-002	 1.32412e-002
924	 9.4300000000e+002	-1.86763e-002	 1.39140e-002
925	 9.4400000000e+002	-1.84101e-002	 1.44128e-002
926	 9.4500000000e+002	-1.80838e-002	 1.49764e-002
927	 9.4600000000e+002	-1.77524e-002	 1.55310e-002
928	 9.4700000000e+002	-1.73407e-002	 1.61793e-002
929	 9.4800000000e+002	-1.67704e-002	 1.69184e-002
930	 9.4900000000e+002	-1.64031e-002	 1.74745e-002
931	 9.5000000000e+002	-1.59139e-002	 1.80522e-002
932	 9.5100000000e+002	-1.53345e-002	 1.86346e-002
933	 9.5200000000e+002	-1.47604e-002	 1.91637e-002
934	 9.5300000000e+002	-1.42483e-002	 1.96185e-002
935	 9.5400000000e+002	-1.36288e-002	 2.01157e-002
936	 9.5500000000e+002	-1.29189e-002	 2.07159e-002
937	 9.5600000000e+002	-1.23781e-002	 2.11284e-002
938	 9.5700000000e+002	-1.17372e-002	 2.15500e-002
939	 9.5800000000e+002	-1.10549e-002	 2.19972e-002
940	 9.5900000000e+002	-1.04066e-002	 2.24237e-002
941	 9.6000000000e+002	-9.67830e-003	 2.28187e-002
942	 9.6100000000e+002	-8.89294e-003	 2.32092e-002
943	 9.6200000000e+002	-8.16513e-003	 2.35921e-002
944	 9.6300000000e+002	-7.46694e-003	 2.39365e-002
945	 9.6400000000e+002	-6.78044e-003	 2.41862e-002
946	 9.6500000000e+002	-5.93910e-003	 2.44788e-002
947	 9.6600000000e+002	-5.16100e-003	 2.47612e-002
948	 9.6700000000e+002	-4.26565e-003	 2.49429e-002
949	 9.6800000000e+002	-3.48630e-003	 2.51225e-002
950	 9.6900000000e+002	-2.76592e-003	 2.52811e-002
951	 9.7000000000e+002	-1.92370e-003	 2.53832e-002
952	 9.7100000000e+002	-1.10857e-003	 2.54791e-002
953	 9.7200000000e+002	-3.97308e-004	 2.55562e-002
954	 9.7300000000e+002	 3.65651e-004	 2.56587e-002
955	 9.7400000000e+002	 1.14630e-003	 2.57985e-002
956	 9.7500000000e+002	 1.87541e-003	 2.57820e-002
957	 9.7600000000e+002	 2.71336e-003	 2.58404e-002
958	 9.7700000000e+002	 3.55345e-003	 2.58745e-002
959	 9.7800000000e+002	 4.12472e-003	 2.58543e-002
960	 9.7900000000e+002	 4.86565e-003	 2.58878e-002
961	 9.8000000000e+002	 5.76694e-003	 2.59791e-002
962	 9.8100000000e+002	 6.56626e-003	 2.59968e-002
963	 9.8200000000e+002	 7.42029e-003	 2.59182e-002
964	 9.8300000000e+002	 8.19071e-003	 2.59282e-002
965	 9.8400000000e+002	 8.86657e-003	 2.59140e-002
966	 9.8500000000e+002	 9.70657e-003	 2.58218e-002
967	 9.8600000000e+002	 1.05803e-002	 2.57269e-002
968	 9.8700000000e+002	 1.14275e-002	 2.58219e-002
969	 9.8800000000e+002	 1.22977e-002	 2.57997e-002
970	 9.8900000000e+002	 1.31961e-002	 2.56985e-002
971	 9.9000000000e+002	 1.41402e-002	 2.57008e-002
972	 9.9100000000e+002	 1.50762e-002	 2.56422e-002
973	 9.9200000000e+002	 1.61937e-002	 2.54615e-002
974	 9.9300000000e+002	 1.73477e-002	 2.52504e-002
975	 9.9400000000e+002	 1.83674e-002	 2.51508e-002
976	 9.9500000000e+002	 1.94240e-002	 2.50762e-002
977	 9.9600000000e+002	 2.06043e-002	 2.46539e-002
978	 9.9700000000e+002	 2.18205e-002	 2.44389e-002
979	 9.9800000000e+002	 2.30099e-002	 2.42008e-002
980	 9.9900000000e+002	 2.42228e-002	 2.37946e-002
981	 1.0000000000e+003	 2.55515e-002	 2.34435e-002
982	 1.0010000000e+003	 2.69183e-002	 2.32412e-002
983	 1.0020000000e+003	 2.82317e-002	 2.26540e-002
984	 1.0030000000e+003	 2.98945e-002	 2.19987e-002
985	 1.0040000000e+003	 3.13595e-002	 2.13640e-002
986	 1.0050000000e+003	 3.28802e-002	 2.04744e-002
987	 1.0060000000e+003	 3.47692e-002	 1.95651e-002
988	 1.0070000000e+003	 3.63718e-002	 1.85619e-002
989	 1.0080000000e+003	 3.80838e-002	 1.73069e-002
990	 1.0090000000e+003	 3.98388e-002	 1.60533e-002
991	 1.0100000000e+003	 4.20148e-002	 1.42294e-002
992	 1.0110000000e+003	 4.35258e-002	 1.24983e-002
993	 1.0120000000e+003	 4.53342e-002	 1.05357e-002
994	 1.0130000000e+003	 4.71227e-002	 8.22052e-003
995	 1.0140000000e+003	 4.87228e-002	 5.61256e-003
996	 1.0150000000e+003	 5.02369e-002	 2.39999e-003
997	 1.0160000000e+003	 5.13584e-002	-2.81463e-004
998	 1.0170000000e+003	 5.23152e-002	-3.39872e-003
999	 1.0180000000e+003	 5.31824e-002	-7.77412e-003
1000	 1.0190000000e+003	 5.33290e-002	-1.09748e-002
1001	 1.0200000000e+003	 5.32574e-002	-1.51900e-002
1002	 1.0210000000e+003	 5.27268e-002	-1.90154e-002
1003	 1.0220000000e+003	 5.19127e-002	-2.29389e-002
1004	 1.0230000000e+003	 5.04241e-002	-2.71905e-002
1005	 1.0240000000e+003	 4.87268e-002	-3.08247e-002
1006	 1.0250000000e+003	 4.65065e-002	-3.43232e-002
1007	 1.0260000000e+003	 4.37091e-002	-3.76922e-002
1008	 1.0270000000e+003	 4.00594e-002	-4.13652e-002
1009	 1.0280000000e+003	 3.70068e-002	-4.37064e-002
1010	 1.0290000000e+003	 3.35629e-002	-4.57933e-002
1011	 1.0300000000e+003	 2.96481e-002	-4.74831e-002
1012	 1.0310000000e+003	 2.60576e-002	-4.87235e-002
1013	 1.0320000000e+003	 2.19783e-002	-4.94873e-002
1014	 1.0330000000e+003	 1.82870e-002	-5.00643e-002
1015	 1.0340000000e+003	 1.48347e-002	-5.01642e-002
1016	 1.0350000000e+003	 1.13912e-002	-4.99272e-002
1017	 1.0360000000e+003	 8.31930e-003	-4.93627e-002
1018	 1.0370000000e+003	 5.14823e-003	-4.84957e-002
1019	 1.0380000000e+003	 1.97618e-003	-4.74781e-002
1020	 1.0390000000e+003	-2.51401e-004	-4.65129e-002
1021	 1.0400000000e+003	-2.58365e-003	-4.52716e-002
1022	 1.0410000000e+003	-5.00931e-003	-4.39240e-002
1023	 1.0420000000e+003	-6.97499e-003	-4.26727e-002
1024	 1.0430000000e+003	-8.77571e-003	-4.12205e-002
1025	 1.0440000000e+003	-1.03843e-002	-3.97165e-002
1026	 1.0450000000e+003	-1.18015e-002	-3.82073e-002
1027	 1.0460000000e+003	-1.33431e-002	-3.64704e-002
1028	 1.0470000000e+003	-1.42852e-002	-3.52142e-002
1029	 1.0480000000e+003	-1.53771e-002	-3.36613e-002
1030	 1.0490000000e+003	-1.62591e-002	-3.22868e-002
1031	 1.0500000000e+003	-1.70378e-002	-3.08731e-002
1032	 1.0510000000e+003	-1.76979e-002	-2.95771e-002
1033	 1.0520000000e+003	-1.83003e-002	-2.80864e-002
1034	 1.0530000000e+003	-1.88403e-002	-2.68520e-002
1035	 1.0540000000e+003	-1.92482e-002	-2.57876e-002
1036	 1.0550000000e+003	-1.96855e-002	-2.45254e-002
1037	 1.0560000000e+003	-1.99788e-002	-2.35433e-002
1038	 1.0570000000e+003	-2.03529e-002	-2.23788e-002
1039	 1.0580000000e+003	-2.06061e-002	-2.12442e-002
1040	 1.0590000000e+003	-2.07920e-002	-2.04582e-002
1041	 1.0600000000e+003	-2.09940e-002	-1.94344e-002
1042	 1.0610000000e+003	-2.11830e-002	-1.86012e-002
1043	 1.0620000000e+003	-2.13391e-002	-1.76845e-002
1044	 1.0630000000e+003	-2.14562e-002	-1.68974e-002
1045	 1.0640000000e+003	-2.15837e-002	-1.59982e-002
1046	 1.0650000000e+003	-2.16435e-002	-1.53990e-002
1047	 1.0660000000e+003	-2.16866e-002	-1.46419e-002
1048	 1.0670000000e+003	-2.17855e-002	-1.41033e-002
1049	 1.0680000000e+003	-2.19897e-002	-1.33610e-002
1050	 1.0690000000e+003	-2.20877e-002	-1.27416e-002
1051	 1.0700000000e+003	-2.22109e-002	-1.21806e-002
1052	 1.0710000000e+003	-2.23929e-002	-1.14675e-002
1053	 1.0720000000e+003	-2.25274e-002	-1.09070e-002
1054	 1.0730000000e+003	-2.26978e-002	-1.02433e-002
1055	 1.0740000000e+003	-2.28309e-002	-9.58554e-003
1056	 1.0750000000e+003	-2.29630e-002	-9.02328e-003
1057	 1.0760000000e+003	-2.30820e-002	-8.31573e-003
1058	 1.0770000000e+003	-2.31815e-002	-7.79071e-003
1059	 1.0780000000e+003	-2.33005e-002	-7.12686e-003
1060	 1.0790000000e+003	-2.34889e-002	-6.41075e-003
1061	 1.0800000000e+003	-2.36032e-002	-5.78268e-003
1062	 1.0810000000e+003	-2.36391e-002	-5.13980e-003
1063	 1.0820000000e+003	-2.37150e-002	-4.51292e-003
1064	 1.0830000000e+003	-2.38070e-002	-3.85217e-003
1065	 1.0840000000e+003	-2.38820e-002	-3.18556e-003
1066	 1.0850000000e+003	-2.39890e-002	-2.69006e-003
1067	 1.0860000000e+003	-2.40421e-002	-1.98700e-003
1068	 1.0870000000e+003	-2.40512e-002	-1.26006e-003
1069	 1.0880000000e+003	-2.40494e-002	-5.87893e-004
1070	 1.0890000000e+003	-2.41070e-002	 1.97614e-004
1071	 1.0900000000e+003	-2.40776e-002	 9.21285e-004
1072	 1.0910000000e+003	-2.40107e-002	 1.59910e-003
1073	 1.0920000000e+003	-2.39808e-002	 2.26153e-003
1074	 1.0930000000e+003	-2.39015e-002	 3.08387e-003
1075	 1.0940000000e+003	-2.37929e-002	 3.67205e-003
1076	 1.0950000000e+003	-2.35781e-002	 4.49995e-003
1077	 1.0960000000e+003	-2.34417e-002	 5.05439e-003
1078	 1.0970000000e+003	-2.33181e-002	 5.68872e-003
1079	 1.0980000000e+003	-2.31514e-002	 6.31936e-003
1080	 1.0990000000e+003	-2.29606e-002	 6.98050e-003
1081	 1.1000000000e+003	-2.27511e-002	 7.63339e-003
1082	 1.1010000000e+003	-2.26210e-002	 8.29548e-003
1083	 1.1020000000e+003	-2.23349e-002	 9.01625e-003
1084	 1.1030000000e+003	-2.21015e-002	 9.63158e-003
1085	 1.1040000000e+003	-2.17883e-002	 1.03671e-002
1086	 1.1050000000e+003	-2.15038e-002	 1.09611e-002
1087	 1.1060000000e+003	-2.12521e-002	 1.14851e-002
1088	 1.1070000000e+003	-2.09000e-002	 1.20241e-002
1089	 1.1080000000e+003	-2.05869e-002	 1.27563e-002
1090	 1.1090000000e+003	-2.02841e-002	 1.32422e-002
1091	 1.1100000000e+003	-1.98375e-002	 1.37938e-002
1092	 1.1110000000e+003	-1.95991e-002	 1.42369e-002
1093	 1.1120000000e+003	-1.92662e-002	 1.47429e-002
1094	 1.1130000000e+003	-1.89231e-002	 1.54132e-002
1095	 1.1140000000e+003	-1.86401e-002	 1.59870e-002
1096	 1.1150000000e+003	-1.84288e-002	 1.64535e-002
1097	 1.1160000000e+003	-1.80582e-002	 1.70640e-002
1098	 1.1170000000e+003	-1.76669e-002	 1.77096e-002
1099	 1.1180000000e+003	-1.72955e-002	 1.82568e-002
1100	 1.1190000000e+003	-1.69065e-002	 1.87568e-002
1101	 1.1200000000e+003	-1.64484e-002	 1.93463e-002
1102	 1.1210000000e+003	-1.61402e-002	 1.98691e-002
1103	 1.1220000000e+003	-1.57815e-002	 2.05158e-002
1104	 1.1230000000e+003	-1.53316e-002	 2.10815e-002
1105	 1.1240000000e+003	-1.49469e-002	 2.15546e-002
1106	 1.1250000000e+003	-1.45715e-002	 2.23048e-002
1107	 1.1260000000e+003	-1.41250e-002	 2.29528e-002
1108	 1.1270000000e+003	-1.35575e-002	 2.35271e-002
1109	 1.1280000000e+003	-1.30610e-002	 2.40933e-002
1110	 1.1290000000e+003	-1.24917e-002	 2.47929e-002
1111	 1.1300000000e+003	-1.20079e-002	 2.54620e-002
1112	 1.1310000000e+003	-1.16444e-002	 2.60488e-002
1113	 1.1320000000e+003	-1.09218e-002	 2.69363e-002
1114	 1.1330000000e+003	-1.03217e-002	 2.74608e-002
1115	 1.1340000000e+003	-9.57921e-003	 2.82386e-002
1116	 1.1350000000e+003	-8.79143e-003	 2.90935e-002
1117	 1.1360000000e+003	-7.98024e-003	 2.98585e-002
1118	 1.1370000000e+003	-7.11601e-003	 3.05946e-002
1119	 1.1380000000e+003	-6.10186e-003	 3.15436e-002
1120	 1.1390000000e+003	-5.27970e-003	 3.21595e-002
1121	 1.1400000000e+003	-4.39122e-003	 3.28259e-002
1122	 1.1410000000e+003	-3.20905e-003	 3.36052e-002
1123	 1.1420000000e+003	-2.08049e-003	 3.42821e-002
1124	 1.1430000000e+003	-9.85427e-004	 3.50079e-002
1125	 1.1440000000e+003	 3.63337e-004	 3.57988e-002
1126	 1.1450000000e+003	 1.76191e-003	 3.63489e-002
1127	 1.1460000000e+003	 3.35514e-003	 3.70622e-002
1128	 1.1470000000e+003	 4.75353e-003	 3.75312e-002
1129	 1.1480000000e+003	 6.42088e-003	 3.82069e-002
1130	 1.1490000000e+003	 8.02229e-003	 3.86836e-002
1131	 1.1500000000e+003	 9.63266e-003	 3.89483e-002
1132	 1.1510000000e+003	 1.16057e-002	 3.92947e-002
1133	 1.1520000000e+003	 1.39206e-002	 3.97360e-002
1134	 1.1530000000e+003	 1.60168e-002	 3.99032e-002
1135	 1.1540000000e+003	 1.80185e-002	 4.00169e-002
1136	 1.1550000000e+003	 2.03758e-002	 3.99448e-002
1137	 1.1560000000e+003	 2.30732e-002	 3.98777e-002
1138	 1.1570000000e+003	 2.55262e-002	 3.93287e-002
1139	 1.1580000000e+003	 2.82373e-002	 3.86348e-002
1140	 1.1590000000e+003	 3.08478e-002	 3.79133e-002
1141	 1.1600000000e+003	 3.34658e-002	 3.65214e-002
1142	 1.1610000000e+003	 3.59554e-002	 3.52359e-002
1143	 1.1620000000e+003	 3.85150e-002	 3.36334e-002
1144	 1.1630000000e+003	 4.11183e-002	 3.15076e-002
1145	 1.1640000000e+003	 4.36438e-002	 2.93265e-002
1146	 1.1650000000e+003	 4.51973e-002	 2.77759e-002
1147	 1.1660000000e+003	 4.76902e-002	 2.46176e-002
1148	 1.1670000000e+003	 4.96399e-002	 2.19776e-002
1149	 1.1680000000e+003	 5.13178e-002	 1.92374e-002
1150	 1.1690000000e+003	 5.27916e-002	 1.61151e-002
1151	 1.1700000000e+003	 5.39233e-002	 1.25999e-002
1152	 1.1710000000e+003	 5.46044e-002	 9.33683e-003
1153	 1.1720000000e+003	 5.52408e-002	 5.69544e-003
1154	 1.1730000000e+003	 5.55541e-002	 2.56577e-003
1155	 1.1740000000e+003	 5.55387e-002	-8.33149e-004
1156	 1.1750000000e+003	 5.50145e-002	-4.30172e-003
1157	 1.1760000000e+003	 5.42355e-002	-7.81271e-003
1158	 1.1770000000e+003	 5.31608e-002	-1.12710e-002
1159	 1.1780000000e+003	 5.21753e-002	-1.38700e-002
1160	 1.1790000000e+003	 5.06272e-002	-1.68586e-002
1161	 1.1800000000e+003	 4.91313e-002	-1.96721e-002
1162	 1.1810000000e+003	 4.76271e-002	-2.21456e-002
1163	 1.1820000000e+003	 4.57129e-002	-2.42532e-002
1164	 1.1830000000e+003	 4.38429e-002	-2.61856e-002
1165	 1.1840000000e+003	 4.15135e-002	-2.82028e-002
1166	 1.1850000000e+003	 3.98456e-002	-2.98033e-002
1167	 1.1860000000e+003	 3.75321e-002	-3.15585e-002
1168	 1.1870000000e+003	 3.53700e-002	-3.29499e-002
1169	 1.1880000000e+003	 3.34174e-002	-3.40675e-002
1170	 1.1890000000e+003	 3.13370e-002	-3.50687e-002
1171	 1.1900000000e+003	 2.90043e-002	-3.60698e-002
1172	 1.1910000000e+003	 2.73322e-002	-3.65907e-002
1173	 1.1920000000e+003	 2.47136e-002	-3.74190e-002
1174	 1.1930000000e+003	 2.31929e-002	-3.79119e-002
1175	 1.1940000000e+003	 2.12989e-002	-3.83362e-002
1176	 1.1950000000e+003	 1.92194e-002	-3.87047e-002
1177	 1.1960000000e+003	 1.75371e-002	-3.89567e-002
1178	 1.1970000000e+003	 1.55882e-002	-3.90366e-002
1179	 1.1980000000e+003	 1.38691e-002	-3.91634e-002
1180	 1.1990000000e+003	 1.19263e-002	-3.91388e-002
1181	 1.2000000000e+003	 1.05001e-002	-3.90654e-002
1182	 1.2010000000e+003	 8.71791e-003	-3.90041e-002
1183	 1.2020000000e+003	 7.32691e-003	-3.88178e-002
1184	 1.2030000000e+003	 5.86482e-003	-3.85913e-002
1185	 1.2040000000e+003	 4.26127e-003	-3.83118e-002
1186	 1.2050000000e+003	 2.59903e-003	-3.80812e-002
1187	 1.2060000000e+003	 1.27385e-003	-3.78087e-002
1188	 1.2070000000e+003	-2.54101e-004	-3.73742e-002
1189	 1.2080000000e+003	-1.49549e-003	-3.69708e-002
1190	 1.2090000000e+003	-2.79205e-003	-3.65797e-002
1191	 1.2100000000e+003	-4.11314e-003	-3.61002e-002
1192	 1.2110000000e+003	-5.31501e-003	-3.56113e-002
1193	 1.2120000000e+003	-6.44057e-003	-3.50716e-002
1194	 1.2130000000e+003	-7.69358e-003	-3.45131e-002
1195	 1.2140000000e+003	-8.83932e-003	-3.39423e-002
1196	 1.2150000000e+003	-1.00332e-002	-3.32485e-002
1197	 1.2160000000e+003	-1.10307e-002	-3.25986e-002
1198	 1.2170000000e+003	-1.19951e-002	-3.19252e-002
1199	 1.2180000000e+003	-1.29272e-002	-3.12182e-002
1200	 1.2190000000e+003	-1.39600e-002	-3.04390e-002
1201	 1.2200000000e+003	-1.49438e-002	-2.95946e-002
1202	 1.2210000000e+003	-1.57131e-002	-2.89279e-002
1203	 1.2220000000e+003	-1.65670e-002	-2.81473e-002
1204	 1.2230000000e+003	-1.72183e-002	-2.75352e-002
1205	 1.2240000000e+003	-1.80419e-002	-2.67011e-002
1206	 1.2250000000e+003	-1.87549e-002	-2.59306e-002
1207	 1.2260000000e+003	-1.94610e-002	-2.50597e-002
1208	 1.2270000000e+003	-2.01851e-002	-2.43133e-002
1209	 1.2280000000e+003	-2.08361e-002	-2.35544e-002
1210	 1.2290000000e+003	-2.15580e-002	-2.26427e-002
1211	 1.2300000000e+003	-2.20270e-002	-2.18590e-002
1212	 1.2310000000e+003	-2.27022e-002	-2.09755e-002
1213	 1.2320000000e+003	-2.32910e-002	-2.00938e-002
1214	 1.2330000000e+003	-2.36893e-002	-1.92585e-002
1215	 1.2340000000e+003	-2.42928e-002	-1.83138e-002
1216	 1.2350000000e+003	-2.46495e-002	-1.73695e-002
1217	 1.2360000000e+003	-2.50339e-002	-1.65525e-002
1218	 1.2370000000e+003	-2.54754e-002	-1.55084e-002
1219	 1.2380000000e+003	-2.58018e-002	-1.47294e-002
1220	 1.2390000000e+003	-2.60646e-002	-1.38587e-002
1221	 1.2400000000e+003	-2.63768e-002	-1.28173e-002
1222	 1.2410000000e+003	-2.66550e-002	-1.18900e-002
1223	 1.2420000000e+003	-2.68656e-002	-1.09483e-002
1224	 1.2430000000e+003	-2.70189e-002	-1.01460e-002
1225	 1.2440000000e+003	-2.71890e-002	-9.34019e-003
1226	 1.2450000000e+003	-2.73201e-002	-8.37812e-003
1227	 1.2460000000e+003	-2.73334e-002	-7.57916e-003
1228	 1.2470000000e+003	-2.73876e-002	-6.61261e-003
1229	 1.2480000000e+003	-2.74582e-002	-5.82106e-003
1230	 1.2490000000e+003	-2.74184e-002	-4.96961e-003
1231	 1.2500000000e+003	-2.74463e-002	-4.18399e-003
1232	 1.2510000000e+003	-2.73999e-002	-3.32480e-003
1233	 1.2520000000e+003	-2.73797e-002	-2.66509e-003
1234	 1.2530000000e+003	-2.73113e-002	-2.07020e-003
1235	 1.2540000000e+003	-2.71274e-002	-1.30566e-003
1236	 1.2550000000e+003	-2.70981e-002	-6.77039e-004
1237	 1.2560000000e+003	-2.71131e-002	 1.36796e-005
1238	 1.2570000000e+003	-2.71286e-002	 6.66249e-004
1239	 1.2580000000e+003	-2.70617e-002	 1.31424e-003
1240	 1.2590000000e+003	-2.69156e-002	 2.07847e-003
1241	 1.2600000000e+003	-2.69117e-002	 2.71936e-003
1242	 1.2610000000e+003	-2.69105e-002	 3.16739e-003
1243	 1.2620000000e+003	-2.68926e-002	 3.92670e-003
1244	 1.2630000000e+003	-2.68889e-002	 4.63951e-003
1245	 1.2640000000e+003	-2.68566e-002	 5.25060e-003
1246	 1.2650000000e+003	-2.69209e-002	 5.89605e-003
1247	 1.2660000000e+003	-2.69498e-002	 6.65663e-003
1248	 1.2670000000e+003	-2.70000e-002	 7.24516e-003
1249	 1.2680000000e+003	-2.69705e-002	 7.96752e-003
1250	 1.2690000000e+003	-2.69010e-002	 8.77121e-003
1251	 1.2700000000e+003	-2.69538e-002	 9.45011e-003
1252	 1.2710000000e+003	-2.70119e-002	 1.02571e-002
1253	 1.2720000000e+003	-2.68626e-002	 1.10621e-002
1254	 1.2730000000e+003	-2.67210e-002	 1.17355e-002
1255	 1.2740000000e+003	-2.66957e-002	 1.26695e-002
1256	 1.2750000000e+003	-2.66969e-002	 1.36167e-002
1257	 1.2760000000e+003	-2.66815e-002	 1.44475e-002
1258	 1.2770000000e+003	-2.66796e-002	 1.53489e-002
1259	 1.2780000000e+003	-2.64763e-002	 1.62950e-002
1260	 1.2790000000e+003	-2.62729e-002	 1.73174e-002
1261	 1.2800000000e+003	-2.61938e-002	 1.82587e-002
1262	 1.2810000000e+003	-2.59625e-002	 1.93736e-002
1263	 1.2820000000e+003	-2.57752e-002	 2.05044e-002
1264	 1.2830000000e+003	-2.55431e-002	 2.15499e-002
1265	 1.2840000000e+003	-2.53060e-002	 2.25829e-002
1266	 1.2850000000e+003	-2.47968e-002	 2.39939e-002
1267	 1.2860000000e+003	-2.43676e-002	 2.53099e-002
1268	 1.2870000000e+003	-2.39536e-002	 2.65248e-002
1269	 1.2880000000e+003	-2.33251e-002	 2.78392e-002
1270	 1.2890000000e+003	-2.23620e-002	 2.93675e-002
1271	 1.2900000000e+003	-2.17039e-002	 3.06329e-002
1272	 1.2910000000e+003	-2.07517e-002	 3.17963e-002
1273	 1.2920000000e+003	-1.97778e-002	 3.30428e-002
1274	 1.2930000000e+003	-1.87183e-002	 3.43326e-002
1275	 1.2940000000e+003	-1.75121e-002	 3.56798e-002
1276	 1.2950000000e+003	-1.63241e-002	 3.66581e-002
1277	 1.2960000000e+003	-1.51717e-002	 3.76040e-002
1278	 1.2970000000e+003	-1.38802e-002	 3.88110e-002
1279	 1.2980000000e+003	-1.20013e-002	 4.02105e-002
1280	 1.2990000000e+003	-1.05389e-002	 4.10776e-002
1281	 1.3000000000e+003	-9.13711e-003	 4.20353e-002
1282	 1.3010000000e+003	-7.15677e-003	 4.31623e-002
1283	 1.3020000000e+003	-5.73715e-003	 4.38962e-002
1284	 1.3030000000e+003	-3.73338e-003	 4.47005e-002
1285	 1.3040000000e+003	-1.60441e-003	 4.55305e-002
1286	 1.3050000000e+003	 6.47504e-004	 4.59980e-002
1287	 1.3060000000e+003	 2.65310e-003	 4.63721e-002
1288	 1.3070000000e+003	 4.64368e-003	 4.67334e-002
1289	 1.3080000000e+003	 7.30877e-003	 4.71749e-002
1290	 1.3090000000e+003	 9.67747e-003	 4.73671e-002
1291	 1.3100000000e+003	 1.15751e-002	 4.72102e-002
1292	 1.3110000000e+003	 1.43012e-002	 4.70629e-002
1293	 1.3120000000e+003	 1.72268e-002	 4.66867e-002
1294	 1.3130000000e+003	 1.94369e-002	 4.63350e-002
1295	 1.3140000000e+003	 2.16860e-002	 4.56633e-002
1296	 1.3150000000e+003	 2.40908e-002	 4.49815e-002
1297	 1.3160000000e+003	 2.67175e-002	 4.39098e-002
1298	 1.3170000000e+003	 2.88130e-002	 4.28446e-002
1299	 1.3180000000e+003	 3.13176e-002	 4.16644e-002
1300	 1.3190000000e+003	 3.35471e-002	 4.03241e-002
1301	 1.3200000000e+003	 3.57695e-002	 3.88419e-002
1302	 1.3210000000e+003	 3.82152e-002	 3.71424e-002
1303	 1.3220000000e+003	 3.99730e-002	 3.56251e-002
1304	 1.3230000000e+003	 4.22386e-002	 3.31661e-002
1305	 1.3240000000e+003	 4.38488e-002	 3.09814e-002
1306	 1.3250000000e+003	 4.52066e-002	 2.90229e-002
1307	 1.3260000000e+003	 4.68435e-002	 2.65687e-002
1308	 1.3270000000e+003	 4.83561e-002	 2.39190e-002
1309	 1.3280000000e+003	 4.97198e-002	 2.12819e-002
1310	 1.3290000000e+003	 5.06451e-002	 1.86510e-002
1311	 1.3300000000e+003	 5.12762e-002	 1.62232e-002
1312	 1.3310000000e+003	 5.20919e-002	 1.31526e-002
1313	 1.3320000000e+003	 5.24384e-002	 1.04180e-002
1314	 1.3330000000e+003	 5.27429e-002	 7.86557e-003
1315	 1.3340000000e+003	 5.28459e-002	 5.17538e-003
1316	 1.3350000000e+003	 5.29108e-002	 2.41677e-003
1317	 1.3360000000e+003	 5.25326e-002	-3.76674e-004
1318	 1.3370000000e+003	 5.22695e-002	-2.57686e-003
1319	 1.3380000000e+003	 5.18546e-002	-5.39610e-003
1320	 1.3390000000e+003	 5.10705e-002	-7.78203e-003
1321	 1.3400000000e+003	 5.03303e-002	-1.02421e-002
1322	 1.3410000000e+003	 4.94004e-002	-1.26070e-002
1323	 1.3420000000e+003	 4.84055e-002	-1.46899e-002
1324	 1.3430000000e+003	 4.71421e-002	-1.71306e-002
1325	 1.3440000000e+003	 4.56598e-002	-1.95455e-002
1326	 1.3450000000e+003	 4.46376e-002	-2.10063e-002
1327	 1.3460000000e+003	 4.31772e-002	-2.25998e-002
1328	 1.3470000000e+003	 4.16856e-002	-2.44104e-002
1329	 1.3480000000e+003	 3.99939e-002	-2.62469e-002
1330	 1.3490000000e+003	 3.84387e-002	-2.77403e-002
1331	 1.3500000000e+003	 3.66739e-002	-2.91819e-002
1332	 1.3510000000e+003	 3.50246e-002	-3.03633e-002
1333	 1.3520000000e+003	 3.34158e-002	-3.15162e-002
1334	 1.3530000000e+003	 3.18249e-002	-3.24297e-002
1335	 1.3540000000e+003	 3.00714e-002	-3.33434e-002
1336	 1.3550000000e+003	 2.83591e-002	-3.41505e-002
1337	 1.3560000000e+003	 2.66813e-002	-3.49239e-002
1338	 1.3570000000e+003	 2.49120e-002	-3.55553e-002
1339	 1.3580000000e+003	 2.31470e-002	-3.61343e-002
1340	 1.3590000000e+003	 2.13659e-002	-3.66185e-002
1341	 1.3600000000e+003	 1.98692e-002	-3.69525e-002
1342	 1.3610000000e+003	 1.82186e-002	-3.72959e-002
1343	 1.3620000000e+003	 1.67119e-002	-3.74646e-002
1344	 1.3630000000e+003	 1.50202e-002	-3.74739e-002
1345	 1.3640000000e+003	 1.34659e-002	-3.75914e-002
1346	 1.3650000000e+003	 1.19631e-002	-3.75919e-002
1347	 1.3660000000e+003	 1.05083e-002	-3.76726e-002
1348	 1.3670000000e+003	 9.30315e-003	-3.75987e-002
1349	 1.3680000000e+003	 7.97294e-003	-3.76311e-002
1350	 1.3690000000e+003	 6.55934e-003	-3.74071e-002
1351	 1.3700000000e+003	 5.28531e-003	-3.71776e-002
1352	 1.3710000000e+003	 4.13874e-003	-3.69900e-002
1353	 1.3720000000e+003	 2.73942e-003	-3.68268e-002
1354	 1.3730000000e+003	 1.64913e-003	-3.65896e-002
1355	 1.3740000000e+003	 4.32112e-004	-3.62167e-002
1356	 1.3750000000e+003	-6.22505e-004	-3.59524e-002
1357	 1.3760000000e+003	-1.71795e-003	-3.57282e-002
1358	 1.3770000000e+003	-2.93148e-003	-3.52751e-002
1359	 1.3780000000e+003	-3.72937e-003	-3.50348e-002
1360	 1.3790000000e+003	-4.93762e-003	-3.46790e-002
1361	 1.3800000000e+003	-6.17186e-003	-3.42294e-002
1362	 1.3810000000e+003	-7.05953e-003	-3.38451e-002
1363	 1.3820000000e+003	-7.93729e-003	-3.33716e-002
1364	 1.3830000000e+003	-8.94444e-003	-3.29198e-002
1365	 1.3840000000e+003	-9.85577e-003	-3.25536e-002
1366	 1.3850000000e+003	-1.06064e-002	-3.20465e-002
1367	 1.3860000000e+003	-1.14664e-002	-3.15520e-002
1368	 1.3870000000e+003	-1.23212e-002	-3.09926e-002
1369	 1.3880000000e+003	-1.30248e-002	-3.05174e-002
1370	 1.3890000000e+003	-1.38687e-002	-2.99487e-002
1371	 1.3900000000e+003	-1.45636e-002	-2.95687e-002
1372	 1.3910000000e+003	-1.54307e-002	-2.91518e-002
1373	 1.3920000000e+003	-1.60405e-002	-2.86460e-002
1374	 1.3930000000e+003	-1.67860e-002	-2.80840e-002
1375	 1.3940000000e+003	-1.74256e-002	-2.76861e-002
1376	 1.3950000000e+003	-1.82479e-002	-2.70677e-002
1377	 1.3960000000e+003	-1.88578e-002	-2.65541e-002
1378	 1.3970000000e+003	-1.95505e-002	-2.60102e-002
1379	 1.3980000000e+003	-2.01983e-002	-2.54363e-002
1380	 1.3990000000e+003	-2.09397e-002	-2.49805e-002
1381	 1.4000000000e+003	-2.16646e-002	-2.44810e-002
1382	 1.4010000000e+003	-2.23634e-002	-2.38152e-002
1383	 1.4020000000e+003	-2.28054e-002	-2.33501e-002
1384	 1.4030000000e+003	-2.34226e-002	-2.28442e-002
1385	 1.4040000000e+003	-2.40043e-002	-2.23075e-002
1386	 1.4050000000e+003	-2.46466e-002	-2.18536e-002
1387	 1.4060000000e+003	-2.53494e-002	-2.14134e-002
1388	 1.4070000000e+003	-2.59260e-002	-2.08877e-002
1389	 1.4080000000e+003	-2.66201e-002	-2.01969e-002
1390	 1.4090000000e+003	-2.72674e-002	-1.97958e-002
1391	 1.4100000000e+003	-2.79136e-002	-1.92820e-002
1392	 1.4110000000e+003	-2.86367e-002	-1.86733e-002
1393	 1.4120000000e+003	-2.93099e-002	-1.79072e-002
1394	 1.4130000000e+003	-3.00705e-002	-1.73745e-002
1395	 1.4140000000e+003	-3.07592e-002	-1.66553e-002
1396	 1.4150000000e+003	-3.15261e-002	-1.59404e-002
1397	 1.4160000000e+003	-3.22479e-002	-1.53418e-002
1398	 1.4170000000e+003	-3.30666e-002	-1.45911e-002
1399	 1.4180000000e+003	-3.38574e-002	-1.38407e-002
1400	 1.4190000000e+003	-3.46839e-002	-1.29347e-002
1401	 1.4200000000e+003	-3.53923e-002	-1.22807e-002
1402	 1.4210000000e+003	-3.62384e-002	-1.12191e-002
1403	 1.4220000000e+003	-3.68988e-002	-1.04260e-002
1404	 1.4230000000e+003	-3.77307e-002	-9.23896e-003
1405	 1.4240000000e+003	-3.86180e-002	-8.20714e-003
1406	 1.4250000000e+003	-3.94046e-002	-7.24593e-003
1407	 1.4260000000e+003	-4.02615e-002	-6.09944e-003
1408	 1.4270000000e+003	-4.10523e-002	-4.89087e-003
1409	 1.4280000000e+003	-4.16992e-002	-3.53937e-003
1410	 1.4290000000e+003	-4.26164e-002	-2.39366e-003
1411	 1.4300000000e+003	-4.33399e-002	-8.61737e-004
1412	 1.4310000000e+003	-4.40577e-002	 7.62302e-004
1413	 1.4320000000e+003	-4.48209e-002	 2.16797e-003
1414	 1.4330000000e+003	-4.53929e-002	 3.88844e-003
1415	 1.4340000000e+003	-4.59417e-002	 5.41619e-003
1416	 1.4350000000e+003	-4.64374e-002	 7.34812e-003
1417	 1.4360000000e+003	-4.70575e-002	 9.44006e-003
1418	 1.4370000000e+003	-4.76665e-002	 1.12410e-002
1419	 1.4380000000e+003	-4.79000e-002	 1.32384e-002
1420	 1.4390000000e+003	-4.80550e-002	 1.56500e-002
1421	 1.4400000000e+003	-4.83321e-002	 1.76838e-002
1422	 1.4410000000e+003	-4.84160e-002	 2.02590e-002
1423	 1.4420000000e+003	-4.83670e-002	 2.27196e-002
1424	 1.4430000000e+003	-4.83321e-002	 2.49130e-002
1425	 1.4440000000e+003	-4.79606e-002	 2.72657e-002
1426	 1.4450000000e+003	-4.74764e-002	 3.00538e-002
1427	 1.4460000000e+003	-4.66430e-002	 3.30042e-002
1428	 1.4470000000e+003	-4.59465e-002	 3.53418e-002
1429	 1.4480000000e+003	-4.50454e-002	 3.81140e-002
1430	 1.4490000000e+003	-4.39465e-002	 4.07555e-002
1431	 1.4500000000e+003	-4.23700e-002	 4.37940e-002
1432	 1.4510000000e+003	-4.10533e-002	 4.62601e-002
1433	 1.4520000000e+003	-3.92872e-002	 4.91195e-002
1434	 1.4530000000e+003	-3.73831e-002	 5.15800e-002
1435	 1.4540000000e+003	-3.53022e-002	 5.37911e-002
1436	 1.4550000000e+003	-3.27656e-002	 5.67396e-002
1437	 1.4560000000e+003	-3.05513e-002	 5.87942e-002
1438	 1.4570000000e+003	-2.75550e-002	 6.10509e-002
1439	 1.4580000000e+003	-2.44089e-002	 6.29453e-002
1440	 1.4590000000e+003	-2.12292e-002	 6.49432e-002
1441	 1.4600000000e+003	-1.80085e-002	 6.65404e-002
1442	 1.4610000000e+003	-1.48252e-002	 6.79648e-002
1443	 1.4620000000e+003	-1.08194e-002	 6.92628e-002
1444	 1.4630000000e+003	-7.10523e-003	 7.03883e-002
1445	 1.4640000000e+003	-3.80001e-003	 7.11946e-002
1446	 1.4650000000e+003	 1.68764e-004	 7.16814e-002
1447	 1.4660000000e+003	 4.41203e-003	 7.21090e-002
1448	 1.4670000000e+003	 8.06362e-003	 7.18276e-002
1449	 1.4680000000e+003	 1.19174e-002	 7.16372e-002
1450	 1.4690000000e+003	 1.62683e-002	 7.09777e-002
1451	 1.4700000000e+003	 2.00267e-002	 7.03806e-002
1452	 1.4710000000e+003	 2.38771e-002	 6.93104e-002
1453	 1.4720000000e+003	 2.80534e-002	 6.75809e-002
1454	 1.4730000000e+003	 3.12695e-002	 6.62580e-002
1455	 1.4740000000e+003	 3.47381e-002	 6.45386e-002
1456	 1.4750000000e+003	 3.83064e-002	 6.25263e-002
1457	 1.4760000000e+003	 4.10576e-002	 6.04572e-002
1458	 1.4770000000e+003	 4.45438e-002	 5.74511e-002
1459	 1.4780000000e+003	 4.71132e-002	 5.48910e-002
1460	 1.4790000000e+003	 4.96768e-002	 5.21429e-002
1461	 1.4800000000e+003	 5.21003e-002	 4.89995e-002
1462	 1.4810000000e+003	 5.41070e-002	 4.62852e-002
1463	 1.4820000000e+003	 5.59828e-002	 4.31834e-002
1464	 1.4830000000e+003	 5.78910e-002	 4.01790e-002
1465	 1.4840000000e+003	 5.94189e-002	 3.71445e-002
1466	 1.4850000000e+003	 6.08089e-002	 3.38132e-002
1467	 1.4860000000e+003	 6.17358e-002	 3.08699e-002
1468	 1.4870000000e+003	 6.26889e-002	 2.75179e-002
1469	 1.4880000000e+003	 6.34728e-002	 2.43670e-002
1470	 1.4890000000e+003	 6.41726e-002	 2.11561e-002
1471	 1.4900000000e+003	 6.45247e-002	 1.79059e-002
1472	 1.4910000000e+003	 6.49109e-002	 1.46818e-002
1473	 1.4920000000e+003	 6.49774e-002	 1.18126e-002
1474	 1.4930000000e+003	 6.48988e-002	 8.78069e-003
1475	 1.4940000000e+003	 6.46629e-002	 5.63098e-003
1476	 1.4950000000e+003	 6.42146e-002	 2.65656e-003
1477	 1.4960000000e+003	 6.37337e-002	-1.82464e-004
1478	 1.4970000000e+003	 6.32517e-002	-2.42644e-003
1479	 1.4980000000e+003	 6.23136e-002	-5.85493e-003
1480	 1.4990000000e+003	 6.15933e-002	-7.96047e-003
1481	 1.5000000000e+003	 6.06400e-002	-1.04379e-002
1482	 1.5010000000e+003	 5.96228e-002	-1.28751e-002
1483	 1.5020000000e+003	 5.84505e-002	-1.52977e-002
1484	 1.5030000000e+003	 5.73617e-002	-1.74167e-002
1485	 1.5040000000e+003	 5.62260e-002	-1.93327e-002
1486	 1.5050000000e+003	 5.47969e-002	-2.18912e-002
1487	 1.5060000000e+003	 5.35351e-002	-2.35754e-002
1488	 1.5070000000e+003	 5.22814e-002	-2.53162e-002
1489	 1.5080000000e+003	 5.08424e-002	-2.71402e-002
1490	 1.5090000000e+003	 4.92915e-002	-2.89584e-002
1491	 1.5100000000e+003	 4.74783e-002	-3.09313e-002
1492	 1.5110000000e+003	 4.58609e-002	-3.23580e-002
1493	 1.5120000000e+003	 4.43566e-002	-3.37041e-002
1494	 1.5130000000e+003	 4.27243e-002	-3.49720e-002
1495	 1.5140000000e+003	 4.08415e-002	-3.64181e-002
1496	 1.5150000000e+003	 3.92424e-002	-3.75767e-002
1497	 1.5160000000e+003	 3.73208e-002	-3.87624e-002
1498	 1.5170000000e+003	 3.57989e-002	-3.96207e-002
1499	 1.5180000000e+003	 3.43664e-002	-4.05027e-002
1500	 1.5190000000e+003	 3.26081e-002	-4.14818e-002
1501	 1.5200000000e+003	 3.07876e-002	-4.21951e-002
1502	 1.5210000000e+003	 2.94044e-002	-4.28175e-002
1503	 1.5220000000e+003	 2.74198e-002	-4.36301e-002
1504	 1.5230000000e+003	 2.57478e-002	-4.42179e-002
1505	 1.5240000000e+003	 2.42831e-002	-4.48100e-002
1506	 1.5250000000e+003	 2.24710e-002	-4.53687e-002
1507	 1.5260000000e+003	 2.08676e-002	-4.57958e-002
1508	 1.5270000000e+003	 1.91504e-002	-4.62948e-002
1509	 1.5280000000e+003	 1.77646e-002	-4.66742e-002
1510	 1.5290000000e+003	 1.60668e-002	-4.70798e-002
1511	 1.5300000000e+003	 1.44987e-002	-4.73125e-002
1512	 1.5310000000e+003	 1.30250e-002	-4.74533e-002
1513	 1.5320000000e+003	 1.14653e-002	-4.77094e-002
1514	 1.5330000000e+003	 9.95167e-003	-4.79815e-002
1515	 1.5340000000e+003	 8.17369e-003	-4.80388e-002
1516	 1.5350000000e+003	 6.86613e-003	-4.81174e-002
1517	 1.5360000000e+003	 5.34788e-003	-4.81340e-002
1518	 1.5370000000e+003	 3.83524e-003	-4.81790e-002
1519	 1.5380000000e+003	 2.32079e-003	-4.83612e-002
1520	 1.5390000000e+003	 7.50754e-004	-4.82929e-002
1521	 1.5400000000e+003	-6.63966e-004	-4.81593e-002
1522	 1.5410000000e+003	-2.22747e-003	-4.82007e-002
1523	 1.5420000000e+003	-3.87301e-003	-4.81609e-002
1524	 1.5430000000e+003	-5.26761e-003	-4.80909e-002
1525	 1.5440000000e+003	-6.50690e-003	-4.79387e-002
1526	 1.5450000000e+003	-8.09312e-003	-4.78144e-002
1527	 1.5460000000e+003	-9.63282e-003	-4.75310e-002
1528	 1.5470000000e+003	-1.09976e-002	-4.72562e-002
1529	 1.5480000000e+003	-1.24276e-002	-4.71917e-002
1530	 1.5490000000e+003	-1.42627e-002	-4.68803e-002
1531	 1.5500000000e+003	-1.57676e-002	-4.66324e-002
1532	 1.5510000000e+003	-1.73189e-002	-4.61757e-002
1533	 1.5520000000e+003	-1.88985e-002	-4.56329e-002
1534	 1.5530000000e+003	-2.01569e-002	-4.52389e-002
1535	 1.5540000000e+003	-2.18757e-002	-4.45622e-002
1536	 1.5550000000e+003	-2.35420e-002	-4.38131e-002
1537	 1.5560000000e+003	-2.51024e-002	-4.32000e-002
1538	 1.5570000000e+003	-2.64854e-002	-4.26568e-002
1539	 1.5580000000e+003	-2.78171e-002	-4.21077e-002
1540	 1.5590000000e+003	-2.95246e-002	-4.13323e-002
1541	 1.5600000000e+003	-3.07919e-002	-4.06221e-002
1542	 1.5610000000e+003	-3.21813e-002	-3.98053e-002
1543	 1.5620000000e+003	-3.40251e-002	-3.89965e-002
1544	 1.5630000000e+003	-3.52004e-002	-3.82304e-002
1545	 1.5640000000e+003	-3.68595e-002	-3.70319e-002
1546	 1.5650000000e+003	-3.82287e-002	-3.61591e-002
1547	 1.5660000000e+003	-3.99522e-002	-3.50443e-002
1548	 1.5670000000e+003	-4.14743e-002	-3.35902e-002
1549	 1.5680000000e+003	-4.26185e-002	-3.25740e-002
1550	 1.5690000000e+003	-4.42713e-002	-3.12899e-002
1551	 1.5700000000e+003	-4.55769e-002	-2.98774e-002
1552	 1.5710000000e+003	-4.68104e-002	-2.86840e-002
1553	 1.5720000000e+003	-4.82582e-002	-2.72873e-002
1554	 1.5730000000e+003	-4.97407e-002	-2.55318e-002
1555	 1.5740000000e+003	-5.06376e-002	-2.42180e-002
1556	 1.5750000000e+003	-5.20384e-002	-2.23753e-002
1557	 1.5760000000e+003	-5.35303e-002	-2.05742e-002
1558	 1.5770000000e+003	-5.48717e-002	-1.90276e-002
1559	 1.5780000000e+003	-5.58398e-002	-1.71506e-002
1560	 1.5790000000e+003	-5.68297e-002	-1.52445e-002
1561	 1.5800000000e+003	-5.80895e-002	-1.30753e-002
1562	 1.5810000000e+003	-5.94535e-002	-1.08174e-002
1563	 1.5820000000e+003	-6.02149e-002	-8.93916e-003
1564	 1.5830000000e+003	-6.11913e-002	-6.49781e-003
1565	 1.5840000000e+003	-6.23407e-002	-3.95055e-003
1566	 1.5850000000e+003	-6.28934e-002	-1.88948e-003
1567	 1.5860000000e+003	-6.34400e-002	 7.26944e-004
1568	 1.5870000000e+003	-6.38322e-002	 3.41878e-003
1569	 1.5880000000e+003	-6.40857e-002	 6.25040e-003
1570	 1.5890000000e+003	-6.44680e-002	 8.89874e-003
1571	 1.5900000000e+003	-6.45654e-002	 1.21515e-002
1572	 1.5910000000e+003	-6.47342e-002	 1.49847e-002
1573	 1.5920000000e+003	-6.45410e-002	 1.77928e-002
1574	 1.5930000000e+003	-6.43373e-002	 2.03235e-002
1575	 1.5940000000e+003	-6.38121e-002	 2.34558e-002
1576	 1.5950000000e+003	-6.32833e-002	 2.62322e-002
1577	 1.5960000000e+003	-6.24969e-002	 2.94065e-002
1578	 1.5970000000e+003	-6.15792e-002	 3.25692e-002
1579	 1.5980000000e+003	-6.08702e-002	 3.51541e-002
1580	 1.5990000000e+003	-5.97612e-002	 3.85328e-002
1581	 1.6000000000e+003	-5.83349e-002	 4.15240e-002
1582	 1.6010000000e+003	-5.69506e-002	 4.37805e-002
1583	 1.6020000000e+003	-5.52042e-002	 4.65343e-002
1584	 1.6030000000e+003	-5.31371e-002	 4.96772e-002
1585	 1.6040000000e+003	-5.13302e-002	 5.22219e-002
1586	 1.6050000000e+003	-4.93232e-002	 5.48966e-002
1587	 1.6060000000e+003	-4.68294e-002	 5.75826e-002
1588	 1.6070000000e+003	-4.43407e-002	 6.01321e-002
1589	 1.6080000000e+003	-4.21111e-002	 6.20989e-002
1590	 1.6090000000e+003	-3.92212e-002	 6.46629e-002
1591	 1.6100000000e+003	-3.60364e-002	 6.71782e-002
1592	 1.6110000000e+003	-3.34786e-002	 6.89162e-002
1593	 1.6120000000e+003	-3.04176e-002	 7.07898e-002
1594	 1.6130000000e+003	-2.70222e-002	 7.24506e-002
1595	 1.6140000000e+003	-2.35390e-002	 7.42116e-002
1596	 1.6150000000e+003	-1.98534e-002	 7.54932e-002
1597	 1.6160000000e+003	-1.65766e-002	 7.66410e-002
1598	 1.6170000000e+003	-1.23518e-002	 7.78512e-002
1599	 1.6180000000e+003	-8.98930e-003	 7.86735e-002
1600	 1.6190000000e+003	-5.40597e-003	 7.91771e-002
1601	 1.6200000000e+003	-5.13623e-004	 7.96213e-002
TagsBegin:	 	 	 
OverLoad:	 	False	 
AverageNumber: []	 	 8.80000e+001	 
OverLoadRatio: []	 	 1.19209e-007	 
TagsEnd:	 	 	 
TagScalesBegin:	 	 	 
TagScalesEnd:	 	 	 
